time,Fp1,Fp2,F3,F4,C3,C4,O1,O2
0.000,-0.2963,0.3572,1.4470,0.8020,2.2265,1.4527,0.6891,-0.2649
0.004,1.1866,3.8894,3.8340,3.9470,4.2193,3.9077,3.0989,1.8803
0.008,2.8512,3.0338,5.5612,4.4344,7.0234,4.1991,3.9866,3.6923
0.012,3.2150,5.2277,5.3138,4.3951,8.0589,7.7907,5.4240,5.1116
0.016,3.9166,6.1626,6.4899,6.8390,7.4397,7.5637,5.7039,5.8521
0.020,5.9573,6.1004,7.7408,5.8734,9.0993,6.9795,7.0776,5.9149
0.024,6.0830,6.2560,6.3294,6.1734,8.4163,9.1566,7.9696,6.8075
0.028,6.6950,7.6158,8.7590,7.2799,7.8899,6.5339,8.6451,6.9763
0.032,3.9799,5.6654,8.6359,7.0124,6.6259,6.8532,6.3075,5.5267
0.036,5.5052,5.8190,6.8003,6.6112,8.3640,5.1319,5.5888,5.0578
0.040,4.3839,5.8613,7.2701,7.5988,5.8422,5.2017,5.6422,4.3334
0.044,6.1080,6.0408,6.0469,5.8350,4.8348,5.7709,4.4369,5.8836
0.048,5.9197,5.4319,5.7448,5.8046,3.5544,3.9778,4.6385,2.6958
0.052,5.0236,6.1896,6.7060,9.6997,3.9383,4.4503,2.3580,1.7153
0.056,4.2004,5.0876,6.8339,7.7406,3.1845,2.6721,0.0173,0.4935
0.060,4.8140,3.6452,5.4412,5.1270,1.7662,1.2748,-1.1495,-1.3293
0.064,3.4831,2.7137,3.8153,4.3738,1.0264,-0.7158,-2.9300,-2.5549
0.068,2.3589,2.7683,2.6409,2.8929,-2.6632,-1.5574,-3.4557,-2.7737
0.072,-0.6834,1.0007,1.9764,2.1848,-2.3156,-2.4141,-3.2919,-3.3013
0.076,-0.6255,1.1111,0.3305,0.2595,-2.8253,-3.4849,-2.7702,-4.4349
0.080,-1.7096,0.5325,-0.2748,0.1366,-3.2394,-4.7941,-4.6743,-5.3254
0.084,-1.6478,-2.3810,-1.5429,-0.4228,-4.7248,-5.6808,-3.9228,-4.2254
0.088,-2.1078,-2.4301,-2.1830,-1.9359,-4.1653,-3.2082,-4.1700,-5.1983
0.092,-2.7223,-2.6208,-1.6571,-1.4275,-2.3697,-2.6764,-3.2724,-3.2492
0.096,-2.7213,-1.3559,-2.0739,-0.1560,-1.6546,-1.5195,-2.9775,-1.6308
0.100,-0.8967,-2.5643,1.0433,-1.1393,-0.2316,-0.0319,-0.5769,-0.3809
0.104,-2.5821,-0.9108,0.0137,0.3785,1.8523,1.4710,0.2943,0.6265
0.108,-0.9002,-1.4838,-0.9494,-1.1539,3.5220,3.6731,1.8587,1.0941
0.112,-1.3350,-0.1969,-0.3397,-0.3479,4.5878,4.4780,3.6239,3.0855
0.116,-2.7454,-2.7821,-0.5177,-0.1206,4.3017,2.5877,5.0076,1.6356
0.120,-2.2365,-0.7146,-2.3979,-1.2731,4.3223,3.4700,2.6242,3.4642
0.124,-1.9875,-2.9420,-0.6939,-1.3335,4.0217,3.2903,4.1400,3.5330
0.128,-3.3239,-2.6594,-1.3050,-1.4365,1.6812,4.2301,4.3634,3.8407
0.132,-2.6408,-3.6025,-0.7483,-2.6612,3.6670,3.2728,2.6333,1.9729
0.136,-2.8867,-2.3592,-3.0960,-1.4561,-0.1874,1.9365,-0.0841,2.0496
0.140,-2.5963,-1.8757,-1.1536,-1.6305,1.1170,2.1743,1.2728,1.5043
0.144,-2.8286,-3.4740,-1.0182,-1.2139,1.2292,1.2054,1.0267,-1.3912
0.148,-0.6282,-2.0683,-1.1074,-1.9361,0.9065,0.7722,-0.6759,0.9309
0.152,-0.4112,-1.5835,-0.2095,0.4460,2.0129,1.4488,-1.7942,-1.8230
0.156,-1.7210,-1.4179,0.4888,-0.9847,-0.1089,-0.0848,-1.4905,-1.7718
0.160,0.2380,-0.5889,0.2410,0.8205,0.4542,-2.2990,-3.6027,-2.6795
0.164,0.5336,0.8076,1.8596,0.0783,-1.0397,-0.7663,-2.7929,-2.9127
0.168,0.2192,-0.5117,-0.2944,0.3654,-3.1759,-3.5293,-2.8769,-2.4666
0.172,0.8298,0.8428,3.3049,1.9556,-3.7884,-3.1758,-4.8250,-4.5065
0.176,0.7873,-0.2377,1.7688,2.7732,-3.5566,-4.0276,-3.8560,-4.7140
0.180,1.3174,1.8507,2.7720,3.7164,-3.9206,-3.0975,-3.2156,-3.6949
0.184,2.3936,1.7999,3.0574,1.1020,-2.2823,-4.3563,-2.8872,-3.4108
0.188,3.2094,2.9632,3.6543,5.3522,0.1827,-2.2610,-0.5041,-1.7460
0.192,3.2752,4.5308,4.7112,6.6865,2.0359,-0.6588,-1.5277,-0.7841
0.196,5.5440,5.7226,5.9103,6.0939,1.9918,2.2051,3.4404,1.3182
0.200,6.3698,6.0865,8.6717,9.0832,4.4540,3.3341,2.5601,1.7552
0.204,6.2080,7.1772,6.5667,7.8883,6.7409,5.1270,5.4981,3.6683
0.208,6.9819,7.2806,9.7613,8.7471,8.9834,7.4604,6.4551,6.2327
0.212,7.5622,9.1676,10.6432,7.6081,7.7145,8.6672,6.0435,7.0796
0.216,8.4473,9.0712,8.3402,8.5529,9.7036,9.1800,7.0492,7.6890
0.220,9.1730,7.7992,9.8085,8.6953,9.4546,9.2166,8.0720,7.8587
0.224,7.2792,6.4972,8.0318,8.7264,9.5636,7.6040,7.7030,6.2387
0.228,6.2318,7.1537,7.2515,6.2012,6.7275,6.3920,6.9769,6.5463
0.232,6.1327,6.1506,5.1032,6.6041,6.5724,6.4583,7.8585,5.8394
0.236,5.4934,5.1928,6.8525,6.5815,6.0967,5.1620,5.3119,4.5741
0.240,3.5264,5.7477,5.9932,4.5575,4.2102,2.9428,5.4236,4.2559
0.244,3.9357,3.2850,3.7562,3.9565,4.9135,3.1399,2.2558,2.9045
0.248,3.7166,3.0005,2.4104,0.7525,1.8174,2.2415,2.9396,0.2669
0.252,2.3373,1.9513,0.7533,3.3774,1.9145,2.7347,-0.1714,-1.4642
0.256,-0.6200,2.1073,1.5433,1.1916,-0.3142,0.5728,0.2295,-1.6079
0.260,-1.6963,-0.2161,0.7653,-0.9364,-0.3616,-0.0089,-3.7882,-4.7354
0.264,-1.0815,-0.6303,-0.1144,-0.8598,-1.0515,-4.0823,-3.9870,-5.2697
0.268,-2.7120,-2.6352,-2.6905,-3.1506,-4.2977,-5.0539,-4.9579,-5.7914
0.272,-3.6200,-3.0243,-4.8133,-2.4548,-6.0871,-5.2485,-6.1230,-8.0777
0.276,-3.5156,-4.3312,-3.6893,-4.5147,-5.8150,-6.9828,-7.2278,-7.3757
0.280,-5.9052,-5.2016,-4.1152,-4.8144,-7.0392,-6.7340,-6.9987,-8.3048
0.284,-4.0485,-5.7296,-4.9413,-4.5662,-6.2122,-7.3018,-7.0699,-6.7842
0.288,-5.0834,-5.0290,-5.3805,-5.6872,-4.9359,-7.1113,-6.7005,-6.6286
0.292,-5.2149,-3.9545,-4.3237,-3.8485,-3.6501,-3.3872,-4.3625,-4.2681
0.296,-4.5405,-2.8912,-2.4896,-3.2576,-2.3833,-1.4600,-1.3129,-2.7602
0.300,-2.9657,-2.5496,-2.3532,-1.1582,-0.1317,-0.0048,-1.9312,-3.0876
0.304,-0.8445,-0.6632,-0.6477,-2.2501,1.6951,1.4861,1.4186,1.5343
0.308,0.9488,0.3774,0.8982,1.1834,3.5272,3.2284,2.5055,0.5850
0.312,0.2181,-0.0823,0.0687,0.6308,5.0259,4.2109,2.9740,3.1314
0.316,-0.2038,-0.3994,0.7908,2.5607,6.1771,6.5139,4.2777,4.8781
0.320,1.7707,2.1544,1.6100,1.2203,6.4184,6.2138,5.0894,4.4990
0.324,1.0720,1.0192,2.9822,3.4813,5.5881,5.5901,4.7386,5.1856
0.328,2.0057,2.2016,2.4920,2.7438,5.2976,5.6329,5.7945,5.2924
0.332,3.0445,3.6329,3.2639,2.1895,5.8734,6.5558,4.1612,4.4924
0.336,3.4837,4.5639,3.7447,3.5854,6.2045,4.8596,4.8746,3.5120
0.340,4.1171,4.8869,3.3165,3.0692,3.9330,4.2064,3.2750,3.2306
0.344,5.4314,4.5390,4.2618,4.3709,3.8751,2.5905,2.1576,3.1176
0.348,5.4646,6.0456,4.9768,4.6231,2.9467,3.9542,3.1331,2.1989
0.352,6.2224,6.3039,5.8264,5.0998,4.5332,3.8188,1.8238,0.8217
0.356,7.0384,5.5724,6.6181,5.6509,2.3078,2.5617,1.5756,-0.0659
0.360,5.9212,5.4276,6.0330,6.2529,2.6065,1.4240,0.2046,-1.0594
0.364,6.0109,6.7622,6.3252,7.5817,0.3414,-1.0211,-1.0359,-1.2656
0.368,6.2839,5.1807,7.3644,5.4568,-0.9723,-2.0145,-1.4639,-1.1382
0.372,5.9189,6.7933,5.8108,4.6572,0.0645,-2.0032,-2.7574,-2.6118
0.376,4.4721,6.0082,5.6549,4.1428,-1.2664,-2.8364,-3.0153,-2.6696
0.380,5.6107,5.4039,4.6325,3.3728,-2.5713,-4.1706,-3.5617,-4.3271
0.384,5.5148,4.0437,5.5303,3.0480,-1.3478,-2.3227,-2.2965,-3.5825
0.388,4.7383,5.4367,4.4717,4.8171,0.3088,-1.7796,-0.3657,-1.7276
0.392,4.4808,4.9556,4.8858,4.8525,2.2937,-0.9717,0.5971,-0.1848
0.396,4.4773,5.1593,5.1177,4.8884,2.4239,1.1421,0.7949,1.7493
0.400,6.7781,6.9359,7.2578,5.0364,3.7315,3.1413,3.6469,2.7060
0.404,5.8822,5.8541,6.4582,5.7940,5.4296,5.3549,2.1364,3.8905
0.408,4.7896,6.4325,6.6599,5.0536,7.5783,5.5263,4.8024,3.4392
0.412,4.1681,4.3556,6.8185,3.7300,6.3386,5.4596,4.8432,6.1980
0.416,4.2910,4.3536,5.7183,5.2511,7.1929,7.0681,5.9222,5.3730
0.420,2.8288,3.0833,3.2531,3.8701,8.3880,4.8312,6.8606,4.6608
0.424,2.5488,2.9495,3.1427,3.0680,3.9618,7.4376,4.6906,5.3164
0.428,1.2704,2.9509,3.3436,0.2040,5.9209,2.9285,4.5295,4.8580
0.432,0.0792,-0.1683,1.7488,1.0712,2.7404,3.9079,5.0247,2.8437
0.436,-1.2675,-0.2591,0.5692,-0.2221,3.7682,3.2235,2.3824,2.4424
0.440,0.3295,-0.2548,-0.6160,0.1698,1.6430,1.7164,1.1131,1.1526
0.444,-1.6965,-1.9464,-2.0336,0.3789,2.2690,0.7797,-0.0743,0.7295
0.448,-1.6996,-0.7985,0.5902,-2.8944,1.5965,-0.4116,-0.6173,0.4292
0.452,-1.4481,-2.1854,-4.8077,-2.0847,0.5020,0.0099,-2.1629,-1.8635
0.456,-3.6379,-0.7749,-0.0945,-1.3854,-1.1550,-1.3208,-3.6454,-2.2144
0.460,-3.1476,-2.3285,-2.1214,-3.3628,-0.5407,-1.1938,-6.0464,-4.3193
0.464,-2.9603,-2.1275,-3.8118,-3.6877,-5.4642,-3.9230,-5.4440,-5.7800
0.468,-2.8313,-3.5999,-3.4159,-2.5823,-3.9201,-6.7532,-7.1895,-6.0605
0.472,-4.0344,-2.7225,-2.2408,-3.6684,-5.2727,-5.1602,-6.3376,-7.2680
0.476,-3.6430,-3.0984,-3.9990,-3.1089,-7.4319,-4.6114,-6.1892,-5.4960
0.480,-2.5824,-3.1256,-2.6520,-3.4414,-6.6645,-7.3262,-6.5811,-6.9213
0.484,-1.7635,-2.3518,-2.8335,-3.2916,-6.3476,-7.2372,-5.6873,-6.9671
0.488,0.2245,0.5760,-1.6203,-0.1779,-3.4372,-4.6187,-4.6112,-2.9798
0.492,0.3012,0.5962,-0.3884,-0.1624,-3.1209,-2.1510,-3.2509,-2.8490
0.496,2.5187,1.6346,1.2441,1.1155,1.0704,-0.0478,-0.3210,-0.6070
0.500,2.2719,3.0925,2.5381,2.7397,1.3970,0.9797,-0.3636,-0.7135
0.504,4.6760,6.1461,4.8143,4.4258,3.9281,3.2240,4.2287,5.1617
0.508,6.3035,4.6119,4.9937,6.1008,6.8555,7.2725,4.2428,3.0022
0.512,6.0911,6.5335,7.7542,5.7242,8.3616,7.3573,6.4082,6.9747
0.516,8.0074,7.1335,6.3996,7.5589,9.2917,7.9881,6.4160,6.8636
0.520,8.7130,7.4544,7.6364,7.9626,8.8531,7.9695,6.7307,7.2543
0.524,8.2151,8.5981,9.5421,8.0358,8.1309,8.6540,8.6265,8.2840
0.528,6.6754,9.2878,9.0499,7.6680,7.6800,6.7643,7.4743,7.9636
0.532,8.4783,9.3854,8.2790,8.4260,7.6237,6.5556,7.6076,7.6622
0.536,9.2178,8.2834,8.1701,7.3717,7.0655,5.6115,6.0944,6.9394
0.540,7.8482,9.1629,7.5523,9.5651,5.4130,5.9005,4.6437,5.5795
0.544,7.2438,8.1310,8.2433,7.9067,5.3275,5.0033,3.6746,4.3510
0.548,7.4965,8.9157,6.6763,7.4788,5.4246,4.6149,2.8337,4.4918
0.552,7.7774,9.1022,7.0741,7.3486,3.3900,4.6395,3.6772,1.6633
0.556,5.9310,7.6916,9.4396,6.5649,3.3761,4.0411,1.3370,0.0785
0.560,6.0248,7.3071,5.6288,6.9138,1.4782,0.5668,-0.5553,0.3772
0.564,5.9856,4.1178,5.3277,4.2956,0.9548,-0.2835,-0.9659,-1.6077
0.568,4.1584,6.3293,4.6161,4.7533,-0.9250,-2.5196,-4.2669,-1.8420
0.572,4.2625,3.9523,2.0730,3.8125,-4.1596,-3.2470,-3.8360,-4.3891
0.576,2.3725,3.7862,2.0956,1.9496,-4.1872,-3.1523,-4.3375,-5.4285
0.580,0.5512,2.8984,0.7839,0.2420,-4.8908,-4.8944,-5.4444,-4.8253
0.584,0.9545,0.1963,0.1853,-0.7618,-4.2423,-5.8133,-4.1044,-5.4993
0.588,-0.4461,1.3237,-0.3910,-0.2887,-4.5619,-3.4652,-1.5250,-3.9400
0.592,0.1009,0.3013,0.0785,-0.1385,-2.5000,-2.4320,-2.5770,-2.5039
0.596,0.2390,1.1179,-0.0965,0.0105,-0.9796,-1.8498,-1.5084,-1.4302
0.600,-0.9418,1.2928,-0.7335,0.3522,0.9738,0.6178,-1.0924,-1.1140
0.604,0.0936,1.0448,1.2091,1.7789,2.5272,1.7685,0.7338,1.3012
0.608,0.9131,1.3264,-0.9069,1.6477,3.7422,2.4892,1.8894,1.5337
0.612,1.5636,-1.6000,-0.1747,0.0784,4.1582,4.4491,2.2388,3.0297
0.616,1.4190,0.4261,0.6088,0.7846,5.0302,5.1628,3.0407,3.5776
0.620,0.7861,0.8397,0.0934,-0.5600,4.1849,5.8741,3.8787,4.3485
0.624,0.7719,0.8344,0.6143,-1.1449,5.4471,4.6820,4.9660,3.5092
0.628,-1.7844,-0.5710,0.0457,-0.4023,5.4166,4.2913,3.9033,4.7183
0.632,-1.1971,0.8828,-1.2006,-1.9374,3.7201,2.7311,3.4147,3.5053
0.636,-0.6641,-0.4183,-1.9035,-0.5620,2.5773,2.6594,1.8765,2.7668
0.640,0.1257,-0.1721,-0.5570,-2.6076,2.1453,1.1410,1.2674,0.7172
0.644,1.4740,0.7876,0.4075,-1.2138,2.2135,1.0420,0.9376,1.3456
0.648,0.5028,-0.1692,-0.4096,-0.2552,1.4284,2.1494,-0.0480,-1.0236
0.652,0.9579,1.7153,0.3414,0.5737,1.1782,0.2346,-1.2616,-1.5830
0.656,0.8997,2.6188,2.5210,1.8440,0.3715,0.2310,-2.1502,-3.8158
0.660,2.1326,2.6828,-0.8164,1.1969,-0.1505,-0.3049,-1.5646,-2.3809
0.664,1.9678,2.1636,1.0051,1.2085,-2.8398,-1.4810,-3.9185,-3.8735
0.668,2.8282,2.9564,1.5888,0.1420,-2.9690,-2.0447,-4.2954,-3.9370
0.672,2.5678,1.9912,1.3455,2.3972,-4.9700,-2.4652,-5.0623,-4.9615
0.676,3.0748,3.2167,3.2997,1.9770,-3.9278,-2.2847,-4.8706,-5.0921
0.680,1.9568,3.0837,3.6788,3.1382,-4.5175,-2.9891,-4.0501,-4.0115
0.684,4.0730,4.2317,3.1878,2.6479,-3.6750,-3.6012,-4.0817,-4.9017
0.688,4.5049,4.3412,5.4698,3.9985,-1.9552,-2.4306,-2.4185,-1.2866
0.692,6.4757,6.7026,4.8869,5.6061,-0.2460,0.2182,-0.6744,-0.1855
0.696,6.9660,7.0331,7.2400,5.7240,1.6886,0.8934,2.8567,0.9245
0.700,8.1671,8.6108,8.2865,7.1412,4.7232,3.7603,1.5462,4.4757
0.704,9.0878,8.5534,9.4694,9.3984,5.9655,6.8580,3.7583,4.8860
0.708,11.9530,11.0324,9.1611,9.1901,8.1527,10.0515,6.7283,4.1411
0.712,11.8232,11.1693,10.0223,8.7963,9.0635,9.9477,7.7617,7.3043
0.716,10.1639,12.1303,9.7189,10.1414,7.6200,9.5803,7.0096,6.9472
0.720,10.7727,11.1422,11.4207,8.8226,9.5593,8.5489,9.9864,8.6420
0.724,9.9811,11.1839,7.8039,9.8190,8.4499,7.8502,9.3333,7.2218
0.728,9.9980,9.1817,6.6060,9.5894,8.7725,8.7427,7.0334,8.8063
0.732,7.3163,8.2512,6.2909,8.1063,6.5307,6.4322,6.3074,6.4048
0.736,6.7561,7.1695,7.7227,7.1295,5.6774,5.2540,6.3323,6.5952
0.740,7.1187,6.5403,5.4187,4.5823,5.3968,4.4768,5.3946,2.8748
0.744,4.6055,4.9099,6.3861,5.3406,3.3222,5.1684,4.1773,3.8323
0.748,3.8222,5.3420,3.6890,3.3925,4.0708,3.4676,0.7660,1.2969
0.752,5.0428,2.0834,3.2637,2.2152,2.0447,2.9374,0.4073,-0.0651
0.756,2.1605,1.2988,1.5282,0.6939,0.4197,0.4697,-1.3671,-0.7983
0.760,2.2480,1.2652,-0.5115,-0.9885,-0.0029,0.3911,-3.9820,-3.5224
0.764,0.3313,0.4342,0.1133,-0.4737,-1.7926,-3.9496,-4.6057,-2.7658
0.768,-1.0803,-1.0265,-1.3816,-3.6516,-2.3255,-3.3338,-4.6364,-6.3516
0.772,-2.6265,-1.4355,-3.6210,-2.4664,-5.4671,-4.3935,-6.7849,-7.4915
0.776,-2.7689,-3.5177,-4.3396,-4.6601,-8.1104,-7.1380,-7.7547,-6.9499
0.780,-4.4614,-1.4496,-3.5545,-4.9586,-7.5549,-7.6405,-6.9033,-7.1872
0.784,-3.3101,-2.5542,-3.4542,-4.7617,-7.2450,-6.7428,-6.5512,-5.2576
0.788,-2.5829,-3.3844,-3.1901,-4.4597,-5.4846,-5.7973,-6.2643,-5.5675
0.792,-3.3315,-2.7824,-3.8411,-3.7996,-4.5989,-5.0299,-3.1244,-5.8180
0.796,-1.5561,-1.2521,-2.9997,-3.3944,-2.2770,-2.7538,-2.6134,-2.4543
0.800,-0.0933,-2.2417,-1.2223,-0.8717,-0.2180,-0.7066,-0.3856,0.4226
0.804,1.0459,0.9929,-2.8465,-1.6978,2.4407,1.8526,0.4534,1.6555
0.808,1.2938,1.3414,-1.4441,-0.3960,2.9997,4.5558,2.7002,1.3173
0.812,1.9923,2.0228,1.5625,1.9885,5.7059,3.3018,3.0259,4.1700
0.816,2.7200,2.7220,1.1636,1.5053,6.6453,5.2525,5.3514,5.6474
0.820,1.9179,3.7238,2.5266,1.1146,7.0169,7.0921,6.6049,5.0089
0.824,5.1685,4.7256,3.0535,1.5418,6.3038,6.7813,7.4606,6.9762
0.828,4.2528,3.1532,1.8869,2.2038,5.6946,6.3228,5.7207,6.4351
0.832,4.7870,4.7850,4.6484,3.4749,5.0789,4.5130,5.4605,4.2096
0.836,6.0800,6.1180,3.8846,3.9877,5.5359,5.8877,5.7318,3.5726
0.840,5.7176,5.9154,5.0265,4.1641,5.0798,3.7737,5.1794,4.8525
0.844,7.9338,6.5190,5.1736,4.7356,3.4904,3.3826,3.3063,1.8813
0.848,6.9019,8.4228,5.6680,5.6695,3.4886,4.5546,1.7344,3.6538
0.852,7.1251,7.4927,7.2392,5.1361,3.7378,2.4374,0.7861,3.0403
0.856,7.0217,6.9227,7.1727,6.3456,3.2612,1.6941,0.6375,0.8167
0.860,7.8717,7.0688,5.8181,7.7494,1.1321,0.5483,-0.5138,-0.0437
0.864,7.7714,7.5475,6.2375,6.6169,0.4133,1.3935,0.5105,-1.1407
0.868,7.6495,7.6818,7.1585,6.7797,0.2232,-1.0577,-2.9136,-0.8213
0.872,7.7341,6.8664,5.6247,5.3016,-1.3452,-2.8441,-1.5922,-2.6758
0.876,5.5518,6.3309,6.5701,6.4449,-3.1006,-3.9713,-3.0735,-3.6557
0.880,5.9985,6.1610,4.9721,5.6782,-3.9666,-3.3148,-2.5175,-3.1414
0.884,5.5055,8.5144,4.9358,3.4174,-2.8279,-3.3884,-1.5363,-2.2705
0.888,5.6044,6.0499,6.3417,6.0017,-0.9076,-1.1378,-2.4614,-1.0751
0.892,6.8708,7.4651,5.5703,4.0987,-0.7503,-0.2492,1.0929,-1.3992
0.896,6.7784,6.3284,4.1191,4.4579,3.5276,1.4245,1.6261,2.4546
0.900,7.5085,6.6376,6.0645,7.6945,3.0986,2.4136,2.8640,2.6902
0.904,8.1165,6.6439,6.6513,6.2960,5.3550,4.7822,3.2623,4.2527
0.908,6.8088,5.6741,6.2487,5.5627,6.7651,5.3538,3.7931,6.0489
0.912,8.5397,5.9677,5.6263,4.3762,7.2162,7.4307,7.0100,4.4545
0.916,4.8703,7.1994,5.3624,4.7658,6.2138,7.2016,7.3925,9.2763
0.920,5.6299,5.4522,4.2719,3.5595,7.7999,7.8420,7.6555,6.4033
0.924,4.2477,4.1617,1.8441,2.1509,6.8004,5.2084,6.0323,5.2887
0.928,3.5221,2.6285,1.9688,2.9466,5.8582,4.1565,5.0306,5.6456
0.932,1.5027,2.5338,1.0248,0.9235,4.5641,3.9313,3.1817,4.6190
0.936,1.2870,2.0082,-0.2941,0.5528,3.0464,3.2060,3.7930,3.1679
0.940,0.0306,1.0902,-0.0057,-1.4543,2.3977,1.1994,2.3305,1.6008
0.944,-0.0475,-0.2105,-1.3873,-0.8670,0.9124,0.7654,0.6555,3.4558
0.948,-0.0944,-1.4441,-2.3439,-0.8914,-0.5454,1.0996,1.6872,0.4529
0.952,-0.9654,-0.6617,-2.3564,-3.3897,0.8982,-0.7579,-2.3343,-1.0452
0.956,-0.1166,-1.4585,-2.5893,-2.8433,-0.8939,-0.6967,-2.4906,-3.2100
0.960,-3.4326,-2.3142,-3.3057,-4.1778,-2.9527,-2.5051,-3.5002,-5.1850
0.964,-2.5975,-4.2798,-2.6396,-4.5070,-4.3732,-4.2462,-5.3545,-3.6495
0.968,-2.0042,-1.1061,-4.7751,-4.2207,-5.2070,-4.2210,-6.7163,-5.2613
0.972,-2.5768,-1.7379,-5.5133,-4.3989,-7.8168,-5.3088,-6.4323,-7.2874
0.976,-2.8271,-2.9948,-4.1979,-4.8591,-8.0600,-7.4068,-6.5634,-5.6206
0.980,-0.1157,-1.6892,-3.2564,-3.9702,-7.2552,-7.2797,-4.9018,-5.9781
0.984,-0.3312,-0.8115,-2.2962,-3.4836,-6.9297,-5.7686,-4.8757,-5.6662
0.988,0.2973,-1.3540,0.1237,-1.5325,-5.3176,-4.4397,-3.9312,-5.5270
0.992,0.9252,0.3565,0.6300,-0.1293,-2.5034,-3.6917,-2.5912,-2.0628
0.996,2.6742,3.1115,2.7144,1.5236,-0.0171,0.4747,0.4944,-1.9312
1.000,4.3568,5.4895,3.7560,3.2360,2.2183,1.2616,1.7049,3.3210
1.004,6.9875,5.6645,4.7488,3.0159,4.6814,5.1974,3.3238,4.4753
1.008,6.6123,7.0251,5.1643,4.8696,7.4814,7.4592,4.8024,4.5527
1.012,7.9282,8.5303,5.7152,6.6304,7.4908,8.7585,5.4293,7.1799
1.016,9.0926,8.6737,7.6396,7.1812,8.4149,9.7119,8.6345,8.6533
1.020,9.8573,10.0527,7.4148,7.2076,8.9505,9.3911,10.1375,10.4795
1.024,8.8656,10.9968,7.6957,7.8334,9.0293,9.6306,8.6954,9.6535
1.028,9.2814,8.8859,8.3363,8.1455,8.2462,7.5527,8.1140,8.2860
1.032,9.2756,10.0537,8.6813,7.4797,7.4535,7.5794,8.9765,8.7435
1.036,11.1618,10.7028,9.1121,7.3942,7.2233,6.7433,6.6369,6.6103
1.040,9.5948,8.8149,9.0492,9.0902,6.7842,4.1929,8.4939,6.0098
1.044,9.0026,8.6902,7.8070,5.8118,4.3534,3.8242,5.2589,4.6143
1.048,9.4177,9.3458,6.6921,7.3583,5.0981,4.7704,4.9853,4.1663
1.052,9.0424,9.6348,7.5292,6.5986,3.9995,4.6032,2.4195,3.9253
1.056,8.5567,9.3729,7.3065,5.5337,2.6704,1.3042,1.6892,3.2780
1.060,7.8054,6.2957,5.6974,6.3115,0.4482,0.6628,0.2330,1.1294
1.064,5.5281,7.1040,4.9586,4.0520,-0.6651,-1.8849,-0.4372,-2.1521
1.068,6.3374,4.3997,3.8798,2.1541,-2.2418,-3.4851,-2.5107,-2.7941
1.072,2.9933,2.6100,2.8826,3.8293,-2.6052,-3.2001,-4.3141,-3.3550
1.076,2.7772,2.3058,0.5097,1.5919,-4.7532,-5.5147,-5.5958,-4.1981
1.080,2.4215,2.4089,1.5418,0.5493,-5.6437,-6.0559,-4.1292,-4.1454
1.084,1.8609,1.0704,-1.0367,-0.1034,-4.7391,-5.4438,-3.7989,-4.9843
1.088,0.9143,0.5906,-0.6759,-0.9780,-4.3031,-4.7669,-4.7582,-3.8264
1.092,0.9628,0.0185,0.5450,-0.3377,-2.2908,-4.0252,-3.8100,-3.6241
1.096,1.3795,1.4925,-2.3365,-1.0816,-1.7783,-1.5377,-0.9945,0.1730
1.100,0.8843,0.3030,0.5042,-1.3065,0.1430,0.2387,0.4379,1.6687
1.104,1.3932,1.3464,-1.5816,-0.3659,2.2809,1.6865,1.8123,2.1682
1.108,-1.4170,2.7056,1.0924,0.8207,4.5926,5.6101,2.2889,2.8597
1.112,3.2351,3.0744,-0.1123,-0.9061,4.2404,5.7361,4.8650,4.6232
1.116,2.1831,-0.1027,1.1133,-0.4981,4.9510,4.4537,5.8838,4.1793
1.120,0.3953,-0.5712,-0.2911,-1.5094,5.0655,6.7436,3.6404,5.2179
1.124,0.5546,-0.0548,-0.6739,-0.5869,4.1685,3.6695,3.5225,6.0194
1.128,0.0440,1.0701,-1.2615,-1.9342,3.9394,4.2185,5.0590,5.1539
1.132,0.9942,0.0182,-1.9424,-1.3628,3.7457,2.9793,2.2743,4.8865
1.136,0.5661,-1.2463,-1.8734,-2.0000,2.6250,2.8398,4.3521,2.5551
1.140,1.7457,-0.6683,-1.0388,-0.4329,0.6319,3.3752,2.6497,4.1490
1.144,1.6117,-0.1996,-0.4744,-0.9827,2.0545,-0.3701,1.8508,1.1781
1.148,2.3364,0.3611,-0.7535,-1.7429,0.3165,1.4132,0.5047,-0.2918
1.152,0.5905,1.4522,0.1277,-0.4968,0.1855,0.5540,-0.1508,-0.2358
1.156,2.2353,2.4657,0.1864,-0.7562,-0.1941,-0.3610,-1.0320,-1.3406
1.160,2.7652,1.0657,0.7926,1.3913,-0.1004,-2.0876,-3.3019,-1.5920
1.164,1.9375,2.1888,1.8223,0.0334,-2.1129,-1.6228,-3.0209,-2.3882
1.168,1.8858,1.4579,2.0932,-1.1752,-2.2490,-4.1853,-3.5717,-2.9115
1.172,2.8316,2.4959,0.6568,1.4809,-4.8258,-4.4921,-3.1105,-3.4398
1.176,2.4472,2.3143,1.3836,1.9094,-4.5034,-4.1636,-4.9953,-5.1388
1.180,3.3282,4.8501,2.0701,1.7822,-6.7277,-4.1438,-4.3507,-3.1119
1.184,3.8864,4.1608,2.8490,2.2520,-3.4624,-4.6454,-2.8919,-1.8200
1.188,5.9521,5.3323,3.4639,4.7173,-1.7237,-2.3250,-1.1274,-1.8516
1.192,5.6691,6.6263,4.8319,2.9791,-0.7681,-0.9481,0.9743,0.3123
1.196,8.0490,6.6948,6.3001,5.8703,2.8222,2.1954,1.5742,0.6567
1.200,8.5981,8.5160,8.4629,5.6738,2.6346,4.7565,2.6861,3.6269
1.204,10.3489,9.0696,8.8788,8.5432,6.3030,6.5312,5.5177,6.2296
1.208,11.5473,9.5426,9.0901,8.4541,8.3954,8.6942,6.2635,6.7910
1.212,10.9514,11.2979,8.2357,8.7645,10.1166,8.3404,8.8910,7.6753
1.216,10.3135,11.5205,9.7923,8.1770,9.6186,9.4720,9.6109,8.9095
1.220,11.3062,10.1567,9.5212,9.1679,9.7131,10.1725,8.9083,8.8144
1.224,10.1057,9.3567,7.1811,8.7632,8.6927,9.0432,9.5613,9.3973
1.228,10.3507,10.0065,8.6106,7.7741,6.5967,8.8627,9.1968,8.2498
1.232,7.8128,7.4539,6.7659,6.3880,8.0651,5.6656,7.9946,7.3298
1.236,7.3822,7.7140,7.2206,6.1977,5.1682,4.6426,6.3720,7.3462
1.240,5.9722,6.7982,5.5985,4.9255,4.2676,4.8053,4.4508,5.0894
1.244,4.9105,5.6508,4.9813,3.3792,3.2273,3.5575,3.1434,4.1814
1.248,4.8103,3.3845,4.3210,2.9094,1.7838,2.5540,3.1902,3.9686
1.252,3.5670,2.5236,1.6486,1.5599,2.1835,0.6586,2.2140,1.4862
1.256,2.7644,2.1468,-0.0057,-1.5256,-0.5170,0.2547,-0.6334,-1.2389
1.260,1.7289,2.0511,0.1818,-1.5524,-1.8190,-0.2823,-1.9318,-1.7856
1.264,1.2054,0.9990,-0.7220,-1.9859,-3.4782,-4.3203,-3.6672,-4.0464
1.268,-1.8558,-2.3540,-2.4326,-2.5361,-4.4308,-4.5288,-5.0720,-4.3413
1.272,-1.8847,-1.4541,-3.3967,-4.2112,-7.4800,-5.9937,-5.6613,-4.6552
1.276,-3.5231,-2.7705,-4.0834,-3.9820,-6.2631,-7.5404,-6.7844,-4.8262
1.280,-3.4024,-2.1400,-4.3861,-4.9970,-7.5766,-7.2507,-6.9801,-7.3244
1.284,-3.6750,-3.6809,-4.1771,-5.3234,-7.4537,-6.3040,-6.4891,-6.4396
1.288,-3.9646,-1.7531,-4.5615,-5.9008,-7.9509,-8.5318,-5.2853,-5.6327
1.292,-2.8240,-1.8588,-5.0318,-4.7757,-3.2415,-3.3837,-5.0591,-4.1030
1.296,-3.4869,-2.5080,-3.3766,-2.9633,-2.2087,-1.8685,-2.3153,-2.5200
1.300,-0.9134,0.1607,-1.4716,-2.2125,-0.3409,2.1265,-0.6253,0.1021
1.304,-0.3802,0.7940,-0.8103,0.2958,2.9507,4.2650,1.5147,3.2188
1.308,2.3974,2.0365,-0.4591,-1.6766,4.9746,5.5651,4.1766,4.2456
1.312,0.0980,2.9558,0.9727,-0.7214,4.6472,4.7286,4.3454,5.6974
1.316,2.3911,1.9408,0.7142,0.4705,6.7302,6.5514,7.1202,6.9366
1.320,2.8680,3.2386,1.0877,0.3752,6.6184,5.7784,6.7677,7.8296
1.324,5.3662,2.8508,2.2367,4.0580,7.4191,6.4071,5.8993,7.3315
1.328,5.0766,5.9749,2.6730,2.3235,6.3023,5.7968,5.4783,9.8240
1.332,5.2036,4.0915,4.0727,3.9052,6.7041,4.5129,6.0379,6.4818
1.336,5.1372,5.4651,2.2699,1.5579,5.4919,4.8721,7.0661,5.8473
1.340,6.8246,6.1744,2.8628,4.0344,4.2548,3.7799,6.3706,5.8444
1.344,7.2861,5.9871,3.1800,4.2648,3.6209,2.3707,5.2039,5.1682
1.348,7.9755,5.8823,4.8679,4.5549,3.8368,4.1140,4.3907,4.5618
1.352,6.5615,7.6594,3.9198,5.5073,1.8135,2.6462,4.2214,2.6631
1.356,7.2637,6.9270,5.5391,3.3760,2.7046,2.9284,1.8924,2.6871
1.360,8.0259,6.8136,5.6714,7.6041,-0.0789,0.4703,0.5569,0.4882
1.364,7.3069,6.7993,5.4372,3.6548,-0.2952,-0.6661,-0.4098,-0.9926
1.368,7.7983,6.8969,6.2604,4.8359,-0.3077,-1.4895,-1.0036,-2.7301
1.372,5.6436,5.9919,4.1653,4.9732,-3.8116,-2.8220,-1.8186,-1.3297
1.376,6.8718,5.8976,4.4294,4.7242,-3.7455,-3.7294,-3.9380,-0.9607
1.380,5.6620,5.3532,4.6354,3.1090,-3.3497,-3.7744,-2.3299,-3.0368
1.384,5.6924,6.2855,3.1146,3.6453,-2.7877,-3.6930,-2.0096,-2.3240
1.388,6.4028,4.9178,4.1439,5.5345,-2.1807,-1.6696,-1.2981,-0.9950
1.392,6.8449,5.8180,5.3753,4.4784,-0.8350,0.3295,0.9342,0.3784
1.396,6.8873,4.4329,3.5698,3.7381,1.0573,1.0337,1.4009,2.9582
1.400,7.2302,6.4623,4.3102,4.6821,3.5542,4.1854,2.4428,3.4088
1.404,6.6467,8.6315,4.3816,3.8727,5.3480,4.2557,5.6131,4.3709
1.408,6.8475,7.3706,6.6596,5.3997,7.4236,5.4737,6.9250,5.9509
1.412,6.0603,5.5503,4.9455,3.5838,7.3558,6.5578,7.4796,6.9842
1.416,5.6960,6.6691,4.6672,4.3639,7.4852,7.3346,8.3264,7.5210
1.420,5.5757,4.3020,4.0386,3.6038,6.4659,7.4204,7.0279,8.9581
1.424,3.9856,4.1541,2.7962,1.7562,6.6980,6.4251,6.1475,8.6371
1.428,3.3887,1.3620,1.8113,2.3061,6.1916,4.5434,7.1106,6.9457
1.432,1.7249,1.0446,-0.2246,0.1750,2.4784,6.0766,4.4453,5.7438
1.436,0.1845,0.4490,-0.4108,-1.1083,2.7873,4.2251,4.6943,4.3479
1.440,0.1297,-0.8110,-1.3776,-1.4782,3.8369,2.9805,4.7013,4.2492
1.444,-0.3438,0.0088,-2.1794,-4.0730,0.4984,1.7323,2.7652,3.0976
1.448,-0.9684,-0.9337,-2.2069,-2.6810,0.5238,-0.3794,1.7638,1.6364
1.452,-1.5875,-3.1406,-3.4529,-3.0745,-1.1868,-1.0035,-0.5132,0.3566
1.456,-2.1578,-1.8350,-2.5559,-4.4867,-1.6716,-1.6746,-2.0360,-0.8524
1.460,-3.1953,-2.8847,-4.4428,-2.8076,-3.9995,-4.7757,-2.8296,-3.5633
1.464,-1.9626,-3.4993,-4.9588,-4.4009,-3.7532,-4.7379,-5.9580,-3.6024
1.468,-3.9670,-3.7898,-4.5493,-4.5338,-4.8947,-6.9549,-5.3977,-4.6719
1.472,-2.1405,-4.4075,-6.2801,-5.8745,-5.2976,-6.3357,-3.8528,-6.0649
1.476,-3.6037,-2.4968,-4.1620,-5.4653,-5.9210,-5.6481,-5.9313,-5.0463
1.480,-3.4687,-3.3221,-4.2361,-5.5574,-7.3104,-9.0933,-5.3893,-4.4599
1.484,-1.7585,-1.0710,-2.4879,-2.5486,-6.9805,-6.0837,-4.9449,-3.7305
1.488,-0.1463,-2.1599,-1.9427,-3.0650,-4.0992,-5.6309,-2.7335,-3.1097
1.492,0.6642,0.8881,-2.1662,0.5262,-2.3575,-3.0607,-0.6856,-1.4946
1.496,1.7130,2.7866,-0.8365,0.8283,0.2230,-1.3611,0.3503,0.4024
1.500,3.2748,2.4062,2.1761,0.8164,2.1803,1.1140,1.8616,3.7119
1.504,4.0178,4.5419,4.6421,2.7286,4.2116,5.3261,5.2560,5.1448
1.508,6.4801,6.5948,3.5788,4.0275,6.6143,4.5448,6.4218,8.0429
1.512,7.5932,5.9099,4.2603,5.2445,8.0304,7.5381,9.3673,9.4987
1.516,10.0263,7.5379,6.6233,8.2887,6.8936,8.7762,8.4719,10.1396
1.520,8.9561,9.1483,8.6244,8.0577,9.6713,9.0520,9.6606,8.8788
1.524,8.3648,9.2123,7.7269,6.5506,8.2354,9.3643,11.5761,11.4907
1.528,8.1334,10.3744,7.2593,6.4483,7.5810,7.7130,10.4178,10.0367
1.532,8.1861,8.7607,7.6038,8.1218,8.5300,9.7645,11.4431,9.0624
1.536,9.5971,8.3341,6.7295,7.8405,7.8615,7.3690,8.0942,8.4106
1.540,9.6726,7.6227,8.0675,5.8868,6.6319,5.8830,6.3408,7.8972
1.544,9.4786,8.5046,6.9111,5.7531,4.9591,5.4200,8.3607,8.3529
1.548,7.4895,7.8509,5.0268,7.3323,4.4369,4.6531,6.1467,4.7494
1.552,7.4795,8.2720,5.5316,6.7223,3.3173,4.2935,3.3886,3.4098
1.556,7.9202,5.8961,5.0304,4.3542,2.7942,2.0194,2.6496,1.6851
1.560,6.6263,5.9869,3.9890,5.1045,0.3917,-0.6085,-0.5931,1.5886
1.564,6.3355,6.6659,3.5479,3.1375,-0.7667,-0.0450,1.0253,-2.0182
1.568,4.1431,3.9396,0.6968,2.4148,-2.7959,-3.1443,-2.2267,-1.6521
1.572,3.5475,1.7839,1.6717,1.0916,-4.2632,-3.4042,-3.3893,-3.7625
1.576,0.3815,0.6225,1.1705,0.1714,-3.5365,-5.5056,-2.7404,-2.6342
1.580,1.4594,0.6156,0.2313,-2.8747,-5.2811,-5.4097,-3.6918,-3.6761
1.584,-1.3558,-0.2702,-0.9535,0.5161,-5.3302,-3.2536,-3.0092,-4.2239
1.588,-0.1430,0.0852,-1.6075,-1.5345,-5.6685,-5.4205,-2.5052,-2.3788
1.592,-0.3592,-0.5006,-1.4390,0.1266,-3.9649,-2.1562,-1.3095,-1.9244
1.596,0.0621,0.6785,-1.9062,-1.0681,-0.3478,-0.6267,0.2177,-0.5972
1.600,0.0414,0.0253,-2.0592,-0.4494,1.4535,0.5047,1.3808,0.9494
1.604,1.3482,-1.2810,-0.4444,-1.3633,4.3218,3.0406,2.2923,3.7323
1.608,0.4488,0.0108,-1.7204,-1.0200,4.0506,3.5617,4.1747,4.1539
1.612,-0.7432,2.2687,-1.6030,-1.1469,5.2669,5.0327,6.0804,6.0502
1.616,0.2164,0.9016,-2.4199,-0.8917,7.2060,5.4647,6.2308,7.2068
1.620,1.0731,-0.6013,-0.3676,-1.0390,5.8706,7.5270,6.6326,6.4564
1.624,-1.1040,-1.7631,-1.6360,-0.8507,4.8973,5.9699,5.6047,6.0266
1.628,-1.5304,-1.6072,-2.3590,-1.5525,4.1022,4.7753,6.4174,6.5326
1.632,-0.7390,-2.0962,-1.4159,-2.2271,3.0718,3.5687,5.7642,5.5210
1.636,-1.9347,-1.4601,-1.4495,-2.4076,2.8286,2.9778,4.5505,4.2730
1.640,-2.0998,-1.4470,-2.1586,-1.0049,3.3640,2.1533,3.9686,3.6768
1.644,-0.1072,-2.2925,-2.2478,-1.3791,2.0668,3.3992,2.1299,1.9319
1.648,-0.6180,0.0129,-0.9480,-2.0839,0.5698,0.1128,1.7893,1.4105
1.652,0.3908,1.2452,-0.0943,-2.2598,1.9742,2.1431,0.9963,0.7677
1.656,0.3537,0.6262,-0.7320,-1.1125,-0.2245,-0.1558,0.3277,1.2494
1.660,0.8322,1.0399,-0.0367,-1.9029,-0.2517,-0.3305,-0.5537,0.2199
1.664,0.3812,-0.5408,-0.7427,0.4048,-2.8822,-2.5621,-2.0198,-2.8355
1.668,0.2245,0.4400,-1.1103,-0.3195,-4.1648,-3.3681,-3.2749,-1.1648
1.672,0.8724,0.9656,-0.6614,0.9306,-3.9717,-4.5855,-3.5767,-3.0774
1.676,3.6232,1.9513,0.5148,0.4298,-6.0288,-3.5228,-3.9609,-2.9413
1.680,2.5336,1.2587,1.0621,1.8085,-4.6891,-4.0718,-2.2866,-2.9121
1.684,3.3947,3.6807,1.5921,3.1666,-4.6732,-3.0462,-2.2402,-1.8638
1.688,3.5718,5.5461,2.9370,1.8976,-3.1491,-2.0849,-1.1685,-0.5721
1.692,4.5144,4.8491,2.6686,2.5607,0.4965,0.5159,1.6572,2.2905
1.696,7.2381,6.7074,5.0750,5.6265,1.1196,2.1485,3.6679,3.0641
1.700,7.3770,6.1998,6.8060,6.3156,4.7619,4.6879,6.8420,5.9529
1.704,10.0331,8.5156,5.8477,7.6270,7.5846,6.6685,6.0882,7.9460
1.708,9.1261,9.4676,6.5846,7.7437,9.5984,9.0989,8.5480,10.8551
1.712,9.5396,9.4164,8.9499,9.0558,10.2575,9.6939,10.1688,9.9438
1.716,9.9609,9.8730,9.0323,8.3605,8.8112,10.7759,10.1523,10.6793
1.720,8.9098,8.6655,7.4352,7.9983,9.0197,11.4612,10.6410,12.5474
1.724,7.7177,7.9445,8.2945,7.1320,8.8351,11.1502,8.9320,10.5828
1.728,7.8520,6.1380,6.6206,5.4488,8.8932,8.0857,10.0929,11.1861
1.732,7.6935,6.3590,6.2396,5.5148,5.9155,7.3216,9.4322,9.7858
1.736,6.6723,5.1393,4.9804,3.3702,7.2130,6.9882,7.1134,8.7924
1.740,5.6457,5.5982,4.4164,3.9064,5.7012,3.7499,7.8195,8.1273
1.744,4.6311,3.3701,2.8628,1.6677,4.6591,2.5448,5.0358,5.5476
1.748,3.2803,2.4668,1.9244,2.7782,3.2796,3.4933,3.7328,4.3020
1.752,2.4973,1.3310,-0.0466,0.7071,2.7078,1.2001,1.6418,2.1952
1.756,1.6231,1.3806,-0.5416,-1.8090,0.9030,-0.1496,-1.3885,3.0387
1.760,0.0340,0.2748,-0.8897,-0.4962,-0.4445,-1.1303,-0.7243,-1.5247
1.764,-1.4696,-2.1531,-2.8225,-2.6099,-1.9650,-2.8500,-3.7628,-2.9040
1.768,-2.9406,-2.8800,-4.4843,-3.3526,-5.2718,-4.9572,-3.6449,-4.8508
1.772,-3.7992,-2.8189,-5.3020,-4.4019,-6.6050,-5.5474,-5.7363,-4.8495
1.776,-4.5233,-5.1737,-6.5205,-4.8174,-7.4460,-7.5736,-6.4581,-5.1511
1.780,-4.0889,-5.7960,-6.7668,-5.9250,-7.0744,-7.3388,-4.8264,-4.8488
1.784,-5.1724,-5.6718,-5.6372,-5.6250,-7.7162,-8.1503,-5.8254,-4.6284
1.788,-5.5730,-3.2336,-6.9075,-5.2922,-4.8216,-7.0469,-3.1638,-4.7916
1.792,-4.2260,-5.5340,-4.8862,-4.7174,-4.7019,-4.8492,-3.2714,-3.0370
1.796,-4.4997,-3.0918,-4.8315,-2.8583,-2.6265,-1.1575,0.8153,-0.5792
1.800,-2.1559,-2.9387,-3.7328,-3.4614,-0.4422,0.3676,0.2405,1.5372
1.804,-1.1504,-2.0419,-1.5999,-2.6544,2.5305,2.9677,2.6707,2.8278
1.808,0.0361,-1.4929,-0.9581,-1.1328,5.1414,3.9575,4.1182,5.3643
1.812,1.5947,1.3705,1.8407,0.7006,7.1338,5.8760,4.7903,6.4023
1.816,1.6722,-0.3682,1.2731,0.1984,6.6878,5.3974,6.0118,7.4169
1.820,2.4153,-0.5516,1.2938,1.5993,7.1891,6.4343,8.8609,7.5658
1.824,1.0894,4.0045,1.1814,1.1802,7.6093,7.5364,8.0580,7.6203
1.828,3.7072,1.8560,2.9185,1.4361,7.6330,6.4828,7.7451,8.3530
1.832,3.6340,3.1581,2.3340,1.3240,4.4558,8.1408,6.9913,8.5361
1.836,4.3347,3.9404,3.5927,3.2254,6.1389,5.7925,8.1756,7.8286
1.840,3.3632,4.5157,3.3404,3.8169,3.4233,5.2629,7.3320,7.2859
1.844,4.1769,3.8952,3.6296,3.3122,3.4333,5.9904,4.8425,6.1743
1.848,4.9114,5.0034,3.3049,4.2817,4.3665,4.6643,5.1039,4.8768
1.852,4.5496,5.4332,4.3552,4.4447,3.1142,5.5707,3.6839,5.1941
1.856,6.3738,4.9564,3.7225,5.0418,1.2672,2.7881,1.8380,2.5131
1.860,5.1486,4.9034,4.3933,5.1366,1.9573,2.2161,2.1513,1.3746
1.864,5.7852,6.4200,4.4589,3.8406,-1.5238,0.3369,-1.4413,0.4349
1.868,5.6998,4.9935,4.5952,3.9945,-0.7206,-0.6273,-1.7756,0.3644
1.872,5.7709,5.2619,5.0914,4.9198,-2.4756,-2.5999,-1.0933,-1.2022
1.876,5.1449,5.1574,3.1232,2.1515,-4.2565,-2.2903,-1.3104,-0.9957
1.880,3.9429,2.5687,3.1266,2.4784,-4.5673,-4.4116,-1.3388,-1.0824
1.884,4.0304,3.1590,2.7799,3.5028,-2.8758,-2.4248,-1.6318,-1.4202
1.888,3.8822,5.0969,1.5692,3.1006,-2.4908,-0.6797,-0.5615,1.2151
1.892,4.8786,4.1951,3.6544,3.4760,-0.8093,0.4479,1.2892,1.7554
1.896,6.0527,6.0511,3.9150,2.5389,0.2830,1.0549,3.1455,4.0416
1.900,7.1089,4.0901,4.7877,4.4980,4.6040,3.1749,4.0757,4.6217
1.904,5.7035,5.6084,5.4159,4.0537,4.7954,6.0917,6.7033,6.0912
1.908,7.0432,5.3553,4.8922,4.5595,6.9291,6.0407,7.1261,7.1426
1.912,4.8874,5.0884,3.3507,5.6547,7.9015,9.0255,7.2334,8.2254
1.916,2.9199,3.6534,4.5719,2.5874,9.4185,8.9102,8.5272,10.1921
1.920,1.9795,3.6664,2.2878,2.8194,7.3150,9.7156,8.8981,8.7907
1.924,1.8137,2.0499,1.8419,2.1346,8.6914,6.6222,9.4573,9.4970
1.928,1.5563,2.0034,0.2254,0.7629,8.2392,5.6023,7.3510,6.9259
1.932,-0.2764,-0.1645,-0.4878,1.1790,4.8647,6.2491,6.6519,8.2021
1.936,-2.2132,-1.1222,0.8742,-0.2859,3.8814,4.8842,7.0275,5.6877
1.940,-0.0054,-1.2817,-2.7448,-1.8516,2.6826,2.8474,4.6348,4.5745
1.944,-0.4890,-1.9961,-1.9110,-1.5766,2.0893,2.2386,4.1565,3.7619
1.948,-3.0376,-2.0113,-2.8062,-3.7573,0.6135,1.8744,2.6516,1.8329
1.952,-2.4005,-5.3541,-3.4174,-4.0606,0.2349,0.7121,-0.2731,1.7522
1.956,-3.3283,-5.6691,-4.5047,-5.1694,-1.0249,-0.3929,-1.6593,-0.9827
1.960,-2.9880,-4.3933,-4.6798,-3.9038,-3.3780,-1.5344,-3.5375,-2.6684
1.964,-4.8906,-5.5675,-3.5027,-4.5804,-2.7973,-4.1332,-4.5442,-2.8326
1.968,-5.1277,-6.6196,-4.0978,-4.4389,-6.5990,-8.0032,-3.3005,-3.5847
1.972,-5.8769,-4.9365,-5.1572,-6.5011,-7.0395,-8.1357,-7.0407,-5.7888
1.976,-5.1071,-4.4006,-5.8921,-5.7061,-5.9002,-7.7734,-5.3813,-4.9226
1.980,-5.6161,-3.3628,-5.7630,-4.5106,-7.9583,-6.8898,-4.3828,-3.7062
1.984,-4.1458,-5.7289,-5.0087,-2.1641,-6.0340,-7.4712,-4.8618,-3.0641
1.988,-2.7100,-2.8719,-4.1040,-1.7346,-4.0049,-3.4049,-3.4090,-3.4618
1.992,-2.6426,-1.8358,-1.1167,-0.7834,-2.8211,-1.8838,-2.2667,-1.4868
1.996,0.9633,-1.0965,-0.6550,0.0299,-1.6168,1.2708,1.2290,2.0887
2.000,0.6673,1.0830,2.0184,1.5542,2.0538,5.0932,4.4409,2.7812
2.004,3.2914,2.9900,3.1489,2.1376,5.0556,5.3156,5.1653,5.6934
2.008,4.9596,5.5287,4.1142,2.2905,7.7387,7.6918,7.3423,8.5159
2.012,5.5966,6.6213,5.9372,6.0257,8.7652,8.4137,9.1951,9.8893
2.016,6.0851,7.5377,5.8218,6.8068,10.0749,12.0706,11.8273,10.1141
2.020,6.4624,7.1042,5.9355,6.6546,9.4609,10.1056,10.6513,12.1146
2.024,8.4959,5.2247,7.1431,7.7043,9.5621,11.1354,10.9675,10.8054
2.028,7.9695,7.1935,8.3691,7.6462,8.1413,9.0482,10.0032,12.1174
2.032,9.0304,6.3890,7.4174,7.4740,8.5169,8.4145,10.2006,10.3428
2.036,7.5243,8.1890,7.2981,7.6615,7.2243,8.4401,9.7791,9.0568
2.040,7.0500,5.5516,7.1053,8.2519,5.8386,7.1572,8.5412,8.3010
2.044,6.7279,5.9750,6.0049,7.5344,5.0296,5.9202,8.1892,7.3339
2.048,6.8618,5.7619,6.4780,5.7483,6.8559,5.4354,5.0304,5.7382
2.052,6.0302,4.4707,6.6245,5.5300,3.6809,4.0045,3.6565,4.8066
2.056,4.9768,6.1351,5.9540,6.2463,2.1441,3.0945,3.1461,2.3253
2.060,3.8286,5.3737,5.1118,5.0045,0.2946,1.9565,1.5083,2.4999
2.064,4.3456,3.1215,2.6929,4.2328,0.1387,-0.9850,0.2991,-0.2285
2.068,1.6552,0.8864,1.6027,2.0405,-3.4026,-1.8370,-0.9351,-0.2397
2.072,-0.3270,-0.2009,0.3723,0.9130,-3.6563,-3.5791,-3.0037,-2.6435
2.076,0.0548,-0.3165,-0.5306,0.8479,-5.8762,-4.4166,-3.3786,-3.7121
2.080,-1.4791,-1.4371,-2.5359,-0.7882,-4.5852,-6.3627,-3.1740,-2.5651
2.084,-2.5037,-1.5108,-1.9350,-0.9852,-4.8196,-3.5555,-3.6401,-2.2786
2.088,-2.2453,-2.2657,-1.9026,-1.6209,-4.2619,-3.7990,-3.8888,-3.8532
2.092,-2.0442,-3.1875,-2.6840,-1.8460,-3.1135,-1.1222,-1.4923,-1.3158
2.096,-1.5658,-2.0949,-2.6497,-2.4037,-0.9359,0.7218,0.6127,0.3525
2.100,-1.6655,-1.8768,-1.9952,-1.8086,0.6475,2.0695,3.3178,0.4154
2.104,-3.2933,0.4755,-2.7579,-0.4380,3.1040,4.2698,4.8587,4.5726
2.108,-2.0847,-0.7202,-2.1348,-0.3732,5.3222,4.8374,5.2352,5.2974
2.112,-1.8234,-3.2507,-1.1566,-1.9940,5.3926,6.5937,6.1101,7.0163
2.116,-1.5698,-2.0875,-1.3904,-0.9415,6.8797,6.1053,5.9334,7.3898
2.120,-2.2891,-1.6049,-0.4669,-0.4648,7.2388,5.2349,7.2468,7.3802
2.124,-3.6387,-2.7961,-0.9251,-1.6547,6.0483,7.1052,7.0871,7.5777
2.128,-2.6452,-3.8212,-3.0137,-2.4509,2.7743,5.9562,6.3737,7.3857
2.132,-3.3384,-2.3621,-2.9281,-1.2319,4.6135,4.8577,6.1186,5.2553
2.136,-2.6432,-3.8659,-2.4040,-1.2692,3.3433,4.3539,6.4824,6.2404
2.140,-2.8314,-1.1837,-1.2504,-2.5609,1.3466,2.4302,4.2539,6.1225
2.144,-2.3879,-2.5952,-2.4610,-3.5538,1.7598,2.4569,3.2091,3.0300
2.148,-2.0305,-1.7885,-2.3524,-1.3794,0.4132,2.8054,1.8544,2.2789
2.152,-2.0538,-1.7451,-2.2160,-1.4061,1.1770,1.7198,1.5739,1.9089
2.156,-0.1561,-2.5070,-1.1196,-1.4585,-1.1628,-1.2096,-1.1344,2.1427
2.160,-1.2075,-1.1525,-0.9756,-0.6585,-1.1115,-0.6011,-2.0167,0.9250
2.164,-0.0051,-0.8360,-0.1018,-0.0203,-1.7588,-2.7775,-1.7607,-0.8783
2.168,0.3010,0.1691,-1.1475,-1.4586,-4.2406,-2.7593,-3.2907,-2.7680
2.172,-0.5252,-0.8140,-1.9435,-0.2499,-4.2515,-4.5612,-2.6783,-2.3303
2.176,-1.4747,-1.7013,-0.0065,-0.0678,-5.5163,-5.7869,-2.9693,-2.4400
2.180,-0.2600,-0.1508,0.4669,1.7145,-4.3536,-3.5148,-2.8582,-2.1609
2.184,1.2953,-0.3481,1.1830,1.1108,-2.6946,-5.1817,-0.3006,-1.9884
2.188,3.0002,1.9100,4.0927,3.6757,-2.3070,-1.8549,-0.5217,-1.0484
2.192,2.3877,3.2631,4.4104,3.4418,0.7215,0.3150,0.1913,1.5110
2.196,3.1384,3.6015,4.3750,5.6916,1.9958,2.4896,3.6003,3.3477
2.200,5.0091,6.0273,4.5689,5.0616,6.2101,4.3349,4.5576,5.9412
2.204,6.5748,6.1669,6.5065,6.8150,5.7227,7.1345,6.7005,6.5178
2.208,7.2716,8.0017,7.5689,8.2757,7.4164,9.7315,9.6045,10.0023
2.212,6.8320,6.2648,8.8041,7.1634,9.8545,11.7614,10.3947,11.1394
2.216,5.5055,7.6469,5.6156,8.9681,10.4130,11.3516,10.5256,11.9095
2.220,5.6429,5.9980,7.6813,6.3540,11.7944,12.3607,11.2474,12.1415
2.224,6.7037,6.5858,8.8292,6.4820,9.2793,9.9076,13.1153,11.5247
2.228,7.4538,6.0361,7.4640,8.5765,9.6625,8.2862,9.7947,10.0374
2.232,4.7480,3.9552,3.6499,6.4056,7.7845,6.9733,9.7893,8.3492
2.236,4.3709,3.9965,5.3585,5.7597,6.3448,6.8466,8.3047,9.3325
2.240,3.2382,2.9573,2.7667,3.2827,3.9604,5.3714,7.7463,7.1109
2.244,1.0278,2.3416,2.6307,2.9254,5.6939,3.3930,7.1093,6.6357
2.248,1.7171,0.0628,1.0663,2.8005,2.4061,3.4495,3.3850,3.0538
2.252,1.4780,0.2679,1.3098,1.2071,1.0464,0.2848,3.4470,2.7497
2.256,-1.1161,-0.5190,-0.9917,0.3397,-0.8890,-1.5086,-0.0788,0.4321
2.260,-3.1946,-3.0961,-3.0165,-0.9419,-0.1663,-1.1627,-0.6021,-1.0662
2.264,-3.3513,-3.2907,-3.1101,-2.0058,-2.6475,-3.9575,-2.8145,-2.0769
2.268,-5.4201,-5.6757,-3.9481,-4.4756,-4.3669,-3.8194,-3.5275,-4.0237
2.272,-7.3814,-5.3359,-6.1538,-4.8542,-7.1087,-5.1876,-5.8892,-4.6322
2.276,-6.3251,-6.8992,-4.7232,-4.9970,-7.4461,-6.2697,-6.2668,-6.1385
2.280,-6.9213,-6.9008,-6.7726,-7.1896,-7.0334,-6.2936,-6.1309,-5.0502
2.284,-6.2420,-7.5675,-6.0229,-6.1079,-7.8309,-7.0685,-5.8182,-5.3456
2.288,-6.8671,-6.9769,-6.5409,-5.7470,-6.0773,-5.9899,-3.7145,-3.7823
2.292,-6.1040,-6.0917,-7.9074,-6.4737,-3.2500,-2.9220,-3.1490,-2.6119
2.296,-6.0400,-5.6670,-4.2596,-3.0995,-2.0236,-2.8366,-2.6552,-1.2325
2.300,-4.7176,-4.9418,-4.0145,-3.4551,1.3502,-0.3605,1.2041,0.8324
2.304,-3.4904,-2.3797,-2.4800,-2.0140,1.9504,2.7726,3.7390,2.0499
2.308,-4.7978,-3.5675,-2.6470,-2.3162,5.4673,4.8087,4.6414,5.1622
2.312,-0.6226,-0.4875,-0.9497,-1.5677,6.4958,6.3187,5.4406,7.2169
2.316,0.3260,-1.1364,-0.2218,0.6501,7.2684,6.3615,7.2996,7.9225
2.320,-0.9442,1.1408,0.6127,1.4479,6.5037,8.5125,8.2818,7.7618
2.324,-0.3142,1.1244,0.9112,0.8338,6.8689,5.1974,8.1583,8.8725
2.328,1.9429,1.5954,1.0925,1.4379,6.7202,8.5487,7.9820,7.7593
2.332,2.0494,0.6729,2.1867,1.9913,7.4307,5.3131,8.7803,8.1572
2.336,1.9788,1.7029,2.5588,2.2296,4.5356,6.3623,7.2852,6.8790
2.340,1.8657,3.4402,4.0501,4.1168,3.0842,5.5995,7.2154,7.7307
2.344,3.3950,2.7594,4.2120,4.0872,4.0733,5.4274,5.9702,4.1992
2.348,3.7666,3.6085,2.5620,4.4172,4.2200,5.6900,4.8698,5.7627
2.352,3.5948,2.7022,4.3306,5.6237,4.1213,3.1868,4.0579,3.4688
2.356,2.3109,3.3772,7.6453,4.6299,1.4787,3.2696,1.7903,1.1289
2.360,4.3479,3.2595,3.5335,4.2686,-0.3858,-0.1204,1.1614,2.1624
2.364,4.2200,3.2383,3.0281,3.8960,0.1971,0.8770,0.3469,0.6860
2.368,2.7527,4.2881,4.0426,4.5383,-0.8422,-1.3199,-0.0739,-0.9178
2.372,2.6475,3.8789,3.1542,3.8043,-4.2966,-3.6333,-1.8256,-0.7136
2.376,3.5407,3.6441,3.2962,3.4392,-3.1759,-1.2990,-2.4034,-1.8011
2.380,2.0449,1.7581,4.6778,2.4111,-2.4221,-3.3519,-2.7996,-2.1745
2.384,2.4054,2.2926,0.3348,3.3053,-4.0683,-3.3480,-1.8932,-0.4813
2.388,1.9363,2.1384,2.3250,2.9416,-1.4820,-2.5377,0.6719,-2.1426
2.392,2.7217,1.1627,2.7388,3.2716,-0.1123,0.3886,1.2930,-0.2187
2.396,2.4891,2.9360,3.0252,3.8471,1.8280,2.3966,3.3561,1.9133
2.400,2.8436,2.5914,3.5280,4.3196,4.6075,4.6997,4.3490,5.3499
2.404,4.2230,3.6606,3.6568,3.8615,4.8614,6.3463,5.8256,6.1205
2.408,3.1017,2.2193,3.0306,4.3202,5.8729,7.2753,6.7127,7.9377
2.412,4.1453,1.8025,2.1455,3.4475,7.7225,8.6351,8.0957,8.8111
2.416,2.5092,3.8899,2.7740,1.8456,8.3553,8.8602,9.6160,8.7129
2.420,0.6943,1.1243,2.3714,2.6455,7.9236,7.9888,7.3518,8.6294
2.424,-0.9366,-0.4310,2.6338,1.2074,7.2927,7.7938,9.6870,9.2112
2.428,-1.3584,-2.0904,2.0741,0.2673,6.8752,6.0929,7.0431,8.0100
2.432,-2.7027,-1.2642,0.2808,-0.0203,5.7151,5.3580,8.8311,7.0680
2.436,-3.3755,-1.3239,-1.0826,-1.2991,4.5128,4.8107,4.9705,4.9683
2.440,-3.1752,-5.1202,-2.0339,-2.7571,3.0454,2.0530,3.8920,3.4788
2.444,-3.1354,-2.6605,-3.8903,-2.1205,2.5755,3.4901,2.0836,1.3920
2.448,-4.4765,-3.9996,-4.1237,-4.2180,0.2422,0.6864,1.1554,1.3244
2.452,-5.4724,-5.3683,-3.3755,-4.3927,1.1153,0.3770,0.2764,2.0508
2.456,-5.7605,-5.6832,-3.9758,-3.2762,-1.9035,-3.5092,0.2911,-0.0841
2.460,-6.8453,-4.8413,-5.7517,-5.0523,-3.5302,-2.0359,-4.3125,-2.7379
2.464,-6.0092,-6.2319,-6.1835,-5.0018,-3.9334,-2.8955,-4.1636,-2.6598
2.468,-7.3532,-7.1483,-6.4485,-5.3079,-6.4457,-5.6668,-4.6409,-4.3967
2.472,-7.0400,-7.7369,-5.6085,-5.8930,-7.3900,-6.1838,-3.9167,-6.5629
2.476,-7.2806,-5.2161,-7.0956,-5.7222,-6.8869,-6.8136,-6.2509,-4.8408
2.480,-6.6591,-6.4343,-5.5046,-6.3550,-8.0764,-7.3274,-5.8243,-5.8557
2.484,-6.8046,-4.5205,-4.5077,-5.5391,-5.0971,-5.6840,-3.9034,-4.7712
2.488,-4.8839,-5.8779,-4.9835,-2.4890,-4.5330,-4.6149,-4.1369,-3.3459
2.492,-3.1170,-3.4510,-2.2332,-2.0948,-2.7821,-2.8529,-1.8125,-0.7385
2.496,-1.7361,-1.8975,-1.6739,-0.2857,-0.2962,0.0114,-0.0483,0.6998
2.500,-1.8005,0.2164,-0.1379,1.1683,1.3464,4.9124,4.0463,2.3873
2.504,1.0434,1.7025,1.7181,3.4127,3.7965,5.5620,5.4075,6.1293
2.508,1.8103,2.6282,4.3225,5.0474,6.9878,7.2864,7.6635,6.8303
2.512,5.7461,4.8617,3.3743,5.5872,8.3189,9.9281,10.0806,8.9273
2.516,4.3886,5.2068,4.2474,6.0133,9.1512,9.4195,10.1424,9.7407
2.520,5.9693,5.1786,5.6212,7.2346,9.5065,10.6027,11.4800,11.2397
2.524,5.6122,6.4651,6.9728,7.7221,10.5082,10.3036,11.8185,10.7987
2.528,4.7376,5.8333,6.8721,6.5374,9.1767,10.9077,10.0833,11.3160
2.532,5.2956,4.2758,6.7506,8.0762,8.7391,9.7246,9.9086,9.3098
2.536,5.5791,4.8200,6.4114,6.8916,9.0600,9.0242,7.9444,7.8857
2.540,4.7109,6.5097,7.2470,7.1359,6.6950,5.2887,6.9292,7.8096
2.544,4.3836,5.8927,6.6992,6.4114,5.5975,6.9207,5.6010,6.9781
2.548,4.6237,5.7298,5.4559,7.1126,5.2353,5.5312,5.6324,5.1732
2.552,3.6883,4.3136,4.6480,5.6116,4.2493,3.2393,4.3315,4.7064
2.556,2.5790,2.7686,3.5018,4.5001,3.7489,1.3966,2.0177,2.2037
2.560,2.9943,3.7362,3.7590,4.0854,0.7024,0.9227,2.1152,-0.2908
2.564,2.2370,1.8157,2.4684,3.3954,-0.5182,-0.3627,-1.4128,0.5390
2.568,1.0247,0.0459,1.8551,1.8107,-2.0492,-1.6402,-3.2248,-2.3201
2.572,0.1907,0.1473,2.1057,0.1024,-4.6326,-4.4037,-3.5980,-4.4100
2.576,-1.9881,-1.7935,-0.0872,1.5710,-4.4665,-4.8160,-3.9646,-3.7850
2.580,-3.5656,-3.3891,-1.4684,-0.2870,-6.7303,-5.6057,-4.6727,-4.6627
2.584,-1.8636,-3.5390,-0.8177,-1.6107,-7.0630,-4.3617,-5.0363,-3.5914
2.588,-5.1030,-4.6347,-2.0433,-2.4323,-6.0535,-5.3876,-4.3466,-1.9907
2.592,-3.8224,-4.0343,-2.2321,-0.6075,-2.8954,-1.5339,-2.6332,-2.5965
2.596,-3.8114,-3.8322,-1.8051,-0.6674,-0.7088,-1.0791,0.0973,0.1490
2.600,-4.7230,-2.4990,-2.4637,-0.9530,0.6397,2.3579,0.7041,1.4409
2.604,-3.0081,-2.7594,-1.6666,-1.9565,2.9712,2.7141,1.2187,2.5944
2.608,-3.2785,-2.0994,-1.7010,-1.5609,5.3987,5.0286,4.4887,4.4815
2.612,-3.8703,-3.1945,-1.8639,-1.4844,5.4662,5.7524,5.3941,6.1748
2.616,-3.3257,-4.4257,-1.6721,-1.8672,5.2136,7.7382,3.8684,6.1386
2.620,-4.4130,-3.2994,-1.6385,-1.4743,5.8033,6.5817,5.6715,5.2218
2.624,-3.8731,-2.2919,-2.0925,-1.3941,7.0108,6.6399,4.9296,6.3051
2.628,-5.3522,-3.9085,-2.9524,-2.6572,4.9900,5.3615,5.4661,6.8552
2.632,-2.8172,-4.6528,-4.3292,-1.0869,3.9594,5.4828,4.1523,5.9670
2.636,-3.3327,-3.3320,-2.3914,-2.2799,2.9230,1.7248,3.5915,6.3605
2.640,-3.6877,-2.9783,-2.7499,-2.3255,3.4635,3.8773,2.8772,3.7432
2.644,-4.0209,-3.6320,-2.9974,-0.9712,0.7008,2.0068,0.6924,3.0650
2.648,-3.2760,-3.1646,-2.1827,-1.8457,1.1606,-0.1102,1.5891,0.9253
2.652,-3.1170,-3.8404,-1.4479,-0.5725,-0.0402,0.6804,0.4785,1.3065
2.656,-3.4231,-3.0382,-2.0140,-3.0078,-1.3803,1.9820,-0.2585,-0.7303
2.660,-2.4586,-2.9797,-0.8942,-1.1318,-2.3623,-1.2116,-2.4078,-2.6377
2.664,-2.1073,-1.9339,-1.8811,-1.0722,-4.1700,-3.9578,-2.5893,-1.4539
2.668,-2.8231,-3.3872,-1.1514,-1.0320,-3.7418,-3.9793,-4.6060,-5.0728
2.672,-2.6044,-2.3907,-0.5324,-1.3962,-5.4471,-5.3604,-5.0660,-4.6770
2.676,-3.0914,-0.9863,0.3086,0.7376,-5.5116,-3.6489,-3.7472,-4.6132
2.680,-2.1488,-1.9746,1.2593,1.1279,-3.7761,-3.6271,-4.2947,-3.6464
2.684,-2.1055,0.7846,2.0133,1.3848,-4.2169,-6.0673,-3.4124,-2.3633
2.688,1.4350,-1.0084,0.8805,2.6726,-2.3726,-3.3791,-2.1512,-2.2800
2.692,0.6905,1.9748,3.5332,2.7916,-0.4040,0.6215,0.1190,0.3838
2.696,3.7313,3.4218,5.6127,4.7776,1.6213,1.9996,3.2751,1.1937
2.700,5.3780,3.5845,5.8324,4.7484,4.8822,4.6597,3.6465,4.7155
2.704,4.5131,6.1245,6.3712,6.6319,7.2865,7.4701,8.4741,6.8807
2.708,4.9045,6.1892,6.8749,8.5277,8.3768,8.5425,7.2232,8.2439
2.712,6.9237,6.1045,6.7864,10.0456,9.1967,9.1687,9.2817,7.6867
2.716,6.6085,5.7057,6.2655,7.6375,9.8265,11.1045,9.7363,10.1880
2.720,6.0106,6.6838,9.0028,8.8601,10.7495,9.5522,9.4735,9.5907
2.724,3.5452,5.6724,5.8160,7.5988,9.8715,10.2521,9.8458,9.8997
2.728,5.3234,5.1241,5.9417,6.3059,8.7711,9.2730,10.0471,9.6460
2.732,3.7705,3.3112,5.8038,4.9442,8.4626,8.5459,8.2300,9.6737
2.736,2.6254,3.7778,4.1211,5.2308,5.9010,7.3261,6.8824,7.6850
2.740,1.0476,2.1238,4.5036,3.0687,5.1422,4.8769,6.1984,5.4178
2.744,1.8558,1.6719,1.3879,2.5310,5.4375,5.3681,4.3513,4.9021
2.748,-1.5811,0.9844,2.4214,0.9073,3.0819,2.5767,3.5768,2.3791
2.752,-2.4708,-1.7851,0.7039,0.8194,-0.1591,1.0086,1.6185,0.4611
2.756,-2.0304,-1.8796,0.3495,-0.3525,-0.1205,-0.0879,0.3651,0.2301
2.760,-3.4473,-2.8180,-3.0010,-1.1801,-1.5526,-1.5502,-3.1601,-4.3354
2.764,-3.9548,-4.7985,-2.9537,-3.8028,-3.6942,-4.3529,-3.1810,-4.7276
2.768,-5.1543,-6.1165,-5.1733,-3.8642,-5.4332,-4.9732,-6.3434,-6.3773
2.772,-8.2609,-6.1930,-4.4624,-3.9374,-6.9576,-6.9857,-6.8296,-7.9541
2.776,-8.0916,-7.6042,-6.5314,-6.4348,-8.2479,-8.8183,-7.8506,-8.0870
2.780,-8.5812,-6.4160,-6.5560,-5.7656,-8.4218,-7.1900,-7.1456,-8.1826
2.784,-8.9657,-7.8236,-7.8556,-7.5588,-7.7468,-6.3536,-7.6276,-7.7808
2.788,-8.9676,-7.8318,-6.9455,-7.8439,-6.1697,-6.7805,-6.9579,-5.4567
2.792,-7.0427,-7.2706,-4.7876,-5.1234,-4.9422,-4.1302,-4.5363,-3.6623
2.796,-8.0068,-6.9822,-5.0594,-5.0799,-1.7208,-2.2128,-2.5682,-4.0140
2.800,-7.3245,-5.8119,-4.8322,-2.9595,-0.5365,0.7061,0.3146,-0.4646
2.804,-3.0252,-3.9806,-3.4990,-1.9679,1.1919,3.0957,0.9441,2.0985
2.808,-3.3927,-3.7031,-1.0910,0.0123,2.6680,4.7338,4.6996,3.5911
2.812,-1.9918,-1.1266,-1.6369,-0.1052,6.0700,5.0062,5.8724,5.3865
2.816,-1.8250,-1.1432,-0.9381,0.3842,6.7322,5.4655,5.2363,5.5526
2.820,-0.3565,0.5374,1.0529,0.6667,7.6506,6.6309,7.0126,5.7955
2.824,-0.4349,0.9129,1.7131,3.0020,7.6863,7.1795,5.7740,5.5738
2.828,-1.7169,0.5551,2.6659,3.5117,5.7159,5.0587,6.1366,6.2913
2.832,0.4690,0.2594,1.4829,1.7505,6.1257,7.5682,6.1960,5.0405
2.836,-0.1740,0.9556,2.3179,2.7503,5.1945,6.2763,5.3548,6.2344
2.840,-1.3062,0.7086,3.6246,2.1564,5.3045,4.0840,5.5935,3.8252
2.844,0.6847,1.8543,3.6369,3.3875,5.4196,4.3530,2.5673,3.6525
2.848,1.1583,2.7062,3.8544,3.7242,3.6092,2.7569,2.0822,2.7128
2.852,3.6960,1.6221,3.3318,3.9630,2.7287,2.7804,1.1900,0.9983
2.856,3.0678,2.0387,4.5168,4.1258,2.6371,2.1191,1.5766,1.6312
2.860,2.2269,3.2580,4.4455,4.9552,0.7162,0.2682,0.0428,-0.8389
2.864,1.6213,1.9760,3.1563,5.1924,-1.2784,0.5154,-2.2966,-1.7964
2.868,1.9271,0.6775,2.6453,3.4075,-2.3094,-3.0605,-1.3103,-3.0829
2.872,1.6275,1.6262,4.1522,4.3838,-3.1908,-2.7618,-3.2877,-3.2101
2.876,-0.7200,0.2967,3.0249,1.7250,-4.8384,-4.0197,-4.1893,-4.7521
2.880,-0.3620,1.2052,1.4626,3.0814,-3.6652,-3.0915,-4.4026,-4.7409
2.884,0.5671,1.0939,1.6024,1.7620,-3.6162,-3.0349,-2.5503,-3.7795
2.888,1.2408,-0.1156,2.3171,3.3838,-2.3668,-2.2387,-1.3288,-4.0475
2.892,1.6057,1.0733,1.9741,3.5640,-1.8490,-0.0871,-1.2722,-0.8635
2.896,1.5702,2.5083,2.8147,3.9727,0.5289,-0.1726,1.5174,1.2366
2.900,2.3519,2.3089,2.9604,4.0408,3.7555,3.2104,3.0640,1.6620
2.904,0.3475,2.2086,5.8091,4.4800,2.9137,6.2391,3.2965,2.5416
2.908,1.6743,1.4424,1.7807,5.3021,5.6954,7.6871,4.0182,4.3063
2.912,2.2014,2.9878,3.9774,4.6749,8.1688,6.9043,7.6500,6.9250
2.916,1.8182,1.6240,3.4587,3.4252,7.0363,7.7402,7.2523,6.1131
2.920,0.1625,0.9882,2.7095,2.5992,8.4150,7.3634,6.7447,6.3510
2.924,0.6847,-0.4032,0.0696,2.0323,6.9356,6.3916,6.3575,6.9426
2.928,-2.0868,-0.7377,-0.3124,0.1491,4.7368,5.2641,7.3166,6.4400
2.932,-1.8411,-1.7594,-1.0540,-1.0015,3.4746,4.1333,5.8443,6.0615
2.936,-3.5053,-1.4223,-1.5415,-2.4982,2.9131,2.2454,2.4447,3.8921
2.940,-5.1441,-5.2475,-2.8175,-2.7654,2.4592,0.6489,2.9356,1.3350
2.944,-5.1220,-4.4547,-2.8575,-3.1049,0.9913,1.0671,1.3813,0.5342
2.948,-5.5795,-5.5823,-3.9101,-4.6100,-1.3454,0.5858,-0.6217,-1.7476
2.952,-5.4050,-5.6868,-4.4856,-2.9734,-3.3045,-1.3223,-2.5646,-3.5030
2.956,-5.8500,-7.1268,-4.3766,-5.1678,-2.8472,-1.5570,-4.0756,-4.5542
2.960,-6.7717,-5.7866,-5.6540,-6.1010,-3.4715,-4.9849,-5.3996,-5.1718
2.964,-7.1455,-8.5299,-4.5237,-5.3085,-5.8238,-6.1901,-6.1825,-7.0905
2.968,-7.0153,-7.2499,-5.7235,-4.9679,-6.3919,-5.8791,-6.8939,-7.2683
2.972,-8.1157,-6.5280,-5.6358,-6.8650,-9.4581,-7.5546,-6.5901,-6.7789
2.976,-7.0011,-7.7121,-7.1712,-6.8156,-9.7884,-10.4039,-8.6289,-7.9908
2.980,-8.1023,-6.9363,-5.2657,-6.6581,-9.9802,-7.3676,-8.3310,-7.6198
2.984,-6.8355,-5.9346,-5.1957,-2.6634,-7.7946,-7.3873,-6.1163,-8.7368
2.988,-6.4243,-4.1461,-3.7774,-3.6089,-5.9616,-6.8725,-6.1344,-6.8916
2.992,-3.3915,-3.5047,-2.9009,-2.6877,-4.5061,-3.8968,-2.5251,-4.7434
2.996,-1.5824,-2.6691,-1.1978,-1.1352,-1.4392,-1.6682,-0.7047,-1.9323
3.000,-0.3266,-1.0183,0.7476,0.3885,1.0133,1.3217,0.1622,-0.4670
3.004,0.4207,0.4449,2.1574,3.1538,2.9256,3.3641,3.1372,2.5270
3.008,2.5841,3.0009,4.2463,3.7364,6.1197,5.5889,5.1341,3.3990
3.012,3.0833,3.4092,2.7501,4.9814,7.9980,8.2008,6.8429,6.2340
3.016,4.0273,3.6811,5.7452,5.3868,9.1662,8.0665,6.8950,7.2851
3.020,4.6811,5.4348,5.4148,7.7819,9.4464,9.0788,8.1623,8.2412
3.024,3.7647,6.3137,5.6328,6.9916,9.9753,6.8778,8.0123,9.3252
3.028,6.1472,6.3732,6.0188,7.2935,8.4214,9.1070,7.9102,8.3944
3.032,4.5780,4.9334,6.2050,6.8282,7.5097,7.1776,9.6955,7.0494
3.036,4.9192,6.6878,5.6135,6.0555,6.4260,5.6667,6.6453,7.0459
3.040,3.8397,5.1796,6.9406,5.9889,5.1249,7.4591,5.4772,3.9313
3.044,4.4949,4.0168,5.4123,5.8738,5.4954,4.6021,5.5268,4.1724
3.048,4.1003,2.9689,6.2518,5.2251,4.5959,3.5089,3.0009,3.1538
3.052,3.1987,2.8796,2.6252,5.9374,3.3221,2.2244,2.8102,0.3140
3.056,1.0953,4.1980,5.1686,4.7852,0.9263,0.3204,-1.0577,-1.4883
3.060,1.0004,1.3267,2.1350,3.6297,-0.8380,-0.2096,-1.5101,-1.7333
3.064,0.0456,0.3851,1.6361,2.9304,-2.1327,-0.4380,-3.0996,-1.1679
3.068,-1.5017,-0.2661,-0.5366,0.3919,-4.2042,-3.2679,-5.6207,-5.0550
3.072,-1.8023,-0.7936,-0.8761,1.3177,-5.2722,-6.3798,-7.1486,-6.0608
3.076,-2.6082,-2.5974,-0.7069,-0.6336,-6.3134,-6.2543,-7.1751,-7.1037
3.080,-4.3170,-3.2266,-1.7374,-1.1498,-6.0857,-5.7866,-5.4514,-7.7940
3.084,-3.6576,-3.3208,-2.5146,-1.7733,-5.7978,-6.3292,-6.6159,-7.1743
3.088,-5.0726,-5.7135,-3.4247,-1.4256,-6.3376,-6.4511,-6.3103,-6.5496
3.092,-4.8408,-4.2836,-3.8955,-2.2362,-4.6813,-5.4758,-2.8551,-4.6175
3.096,-4.2781,-5.3365,-2.1106,-1.2365,-1.9586,-1.6046,-3.1061,-4.7924
3.100,-4.4327,-3.7847,-1.9223,-1.1340,-1.6042,-0.1023,-2.2116,-1.6913
3.104,-4.3365,-4.3866,-2.2224,-2.0977,1.9486,1.4861,0.1347,-0.1980
3.108,-4.7818,-3.2558,-2.2760,-1.1341,3.7701,3.3687,1.2402,1.6979
3.112,-4.0809,-2.0945,-2.3267,-0.7947,4.4511,4.5953,2.8260,3.4802
3.116,-3.7936,-3.0256,-1.1835,-3.3842,3.1596,5.4634,3.6151,2.5181
3.120,-4.0188,-3.3059,-3.1657,-3.0117,4.5958,3.2350,3.6692,3.2734
3.124,-4.5557,-2.2291,-2.8470,-1.7562,4.8571,4.5668,4.1596,2.1602
3.128,-4.0698,-2.2113,-2.9249,-3.3896,3.4763,2.1829,2.6666,3.2426
3.132,-3.9514,-4.2751,-1.5652,-3.2524,3.8485,2.6938,4.1945,3.1229
3.136,-4.4793,-4.5577,-3.0449,-4.5100,1.2539,0.6925,2.5194,2.4583
3.140,-4.1013,-4.3621,-3.5240,-3.7352,0.6828,2.5141,-0.7939,0.9782
3.144,-4.7369,-4.5986,-1.9562,-3.8827,0.7765,0.6492,1.2171,0.5145
3.148,-3.8754,-5.1568,-3.9840,-3.0309,-0.0613,-0.5456,-0.7098,-1.8608
3.152,-3.5010,-2.9454,-3.4783,-2.2202,-0.1051,0.0075,-2.2615,-3.4334
3.156,-4.4859,-2.4514,-2.6405,-2.9793,-2.2252,-2.8240,-2.3364,-2.3692
3.160,-3.7877,-3.6914,-2.8178,-1.9881,-1.3160,-2.0068,-3.7428,-4.8406
3.164,-3.1189,-2.5958,-1.6709,-1.4964,-4.2016,-3.3559,-5.7931,-6.0535
3.168,-4.7118,-3.5222,-1.0633,-1.4277,-5.9600,-7.3204,-5.6783,-6.1777
3.172,-2.1214,-3.2501,-0.8612,-0.1737,-5.6463,-6.6748,-7.8697,-7.2932
3.176,-2.8238,-4.1382,-2.3709,-0.1333,-6.0713,-6.8416,-7.7564,-7.0280
3.180,-1.1961,-1.8555,-0.2916,0.4936,-6.5350,-7.2776,-7.8896,-6.4798
3.184,-1.4114,-1.3029,0.5497,0.0938,-5.3840,-4.2257,-4.1470,-7.0897
3.188,1.4449,0.1219,2.0822,0.8842,-4.4917,-4.2462,-3.9767,-5.2048
3.192,1.9786,1.8058,2.3900,3.4791,-1.4046,-2.3287,-3.5840,-2.5867
3.196,3.2972,3.4224,6.2084,2.8213,-1.1960,1.7422,0.8974,-1.2133
3.200,3.0913,3.9175,6.5577,4.7917,1.1461,2.7296,2.9862,1.0719
3.204,5.0528,6.1997,5.6175,5.6001,5.5193,3.8355,2.2359,2.9413
3.208,6.5974,6.1102,5.8549,7.9052,5.0847,6.1914,2.5809,4.0470
3.212,5.5104,5.5299,7.0166,7.1659,8.1996,8.2868,6.2237,6.8269
3.216,4.8701,6.5046,7.3408,7.3062,8.2831,9.1553,7.7598,7.8997
3.220,4.9577,6.7424,8.4163,7.7035,9.0941,9.3328,9.3350,7.8657
3.224,3.9845,4.9796,5.7052,5.9293,8.6573,7.4867,7.8305,7.6833
3.228,4.2610,4.1427,4.8780,5.2046,9.1329,4.9571,8.0656,7.6481
3.232,3.4229,3.7369,4.3111,5.2454,6.0435,5.8720,6.6170,4.4322
3.236,3.6090,2.9848,3.2827,4.2072,4.4642,3.8704,5.3828,4.1059
3.240,0.9988,2.6236,2.3918,2.0492,3.6449,3.8098,3.1699,3.1626
3.244,1.8830,0.4211,1.8613,1.4223,1.5576,3.0943,2.2815,0.9762
3.248,0.7585,-1.8097,1.8741,-0.0729,0.8202,-0.1727,0.3453,0.1471
3.252,-2.9195,-1.3786,-1.7725,0.4998,-0.4732,-1.1486,-1.7038,-4.4466
3.256,-3.7983,-3.8005,-1.4556,-2.5332,-2.8704,-3.1352,-1.9392,-4.4074
3.260,-3.6333,-2.1886,-3.4167,-4.0833,-4.3003,-3.9786,-5.8707,-5.4911
3.264,-3.2009,-3.9602,-4.9217,-4.6955,-4.0320,-5.7208,-7.1296,-9.5766
3.268,-6.4094,-5.6440,-5.0453,-3.8759,-6.7968,-6.3881,-9.7458,-9.1090
3.272,-7.5678,-7.8096,-5.5339,-5.6285,-10.1994,-7.5007,-10.0480,-9.4197
3.276,-7.9279,-7.4679,-9.1765,-7.2427,-9.6598,-10.6231,-10.4169,-10.7640
3.280,-9.4512,-8.6395,-6.0522,-7.2715,-9.7270,-11.4480,-10.0495,-11.0025
3.284,-8.7255,-8.4914,-7.9414,-7.5182,-10.1273,-9.8704,-10.2224,-11.7311
3.288,-8.0931,-8.5051,-6.9640,-7.3680,-8.1321,-9.9564,-7.7552,-9.0283
3.292,-6.8996,-7.4399,-6.3209,-7.8303,-8.0317,-8.1601,-7.8830,-6.3905
3.296,-7.0043,-6.0974,-6.0532,-5.6617,-4.7109,-4.7496,-5.6167,-5.8268
3.300,-5.7377,-5.2733,-3.2789,-5.3937,-0.2462,-3.4149,-3.5491,-4.0265
3.304,-5.2587,-3.5433,-3.8539,-3.2620,1.2114,-0.1247,-1.6752,-0.8354
3.308,-3.9347,-1.6560,-2.8367,-1.3118,2.8258,1.1986,0.0563,1.1662
3.312,-3.4790,-1.3702,-0.9574,-2.6662,4.5785,3.1501,2.4298,0.4720
3.316,-0.6638,-3.5971,0.0194,-2.0833,5.0711,3.6298,2.9961,2.3458
3.320,-1.2978,-0.5532,1.0494,0.4942,4.3729,4.8344,3.5925,3.7575
3.324,-0.6610,-0.3114,0.5520,2.1451,4.0474,4.7210,4.1691,4.3070
3.328,-0.7568,-0.6916,1.5538,1.1727,5.0370,4.7451,3.2971,3.3977
3.332,-1.2825,0.5738,1.7461,0.0542,5.1449,3.5859,3.3155,3.8523
3.336,0.2759,-0.0766,1.3984,1.3037,2.6475,4.1459,3.5169,2.5128
3.340,1.7808,2.2091,1.0820,1.9428,2.0758,3.3339,3.2148,3.2341
3.344,-0.2862,2.1241,1.8212,3.7718,2.8043,2.3336,1.1265,1.3514
3.348,2.6361,1.9216,4.1210,1.8611,0.1037,1.5184,0.1100,0.0750
3.352,1.7041,1.5405,3.9632,3.4376,0.7826,0.4645,-2.2993,-1.4930
3.356,2.3998,3.0563,2.7150,3.4637,-0.9412,-0.4255,-2.0149,-2.8538
3.360,1.9818,2.2042,3.4852,2.9608,-0.7708,-1.2549,-3.2084,-1.7358
3.364,2.3452,2.7036,3.3168,4.0179,-2.1473,-3.6241,-4.0942,-3.8939
3.368,0.4841,1.1284,2.2534,1.4775,-4.2630,-3.7241,-5.7081,-5.8228
3.372,1.2493,1.6745,1.1813,3.1479,-4.5730,-5.2135,-5.6977,-5.6479
3.376,0.4774,0.7020,3.2747,0.9316,-7.5845,-5.5359,-6.9536,-5.1432
3.380,-0.1780,2.2978,1.4215,0.7707,-6.1241,-6.2868,-5.5627,-7.2850
3.384,0.8693,1.8076,-0.2655,0.2859,-6.4357,-7.0987,-5.2198,-5.3460
3.388,0.6685,0.5360,2.2125,2.3977,-4.9364,-4.7559,-4.9606,-4.9159
3.392,0.1281,1.6975,3.1195,1.6925,-2.0361,-3.9882,-3.3145,-4.1372
3.396,1.2791,1.3728,2.4399,3.1908,-1.2290,0.0589,-2.3814,-1.5513
3.400,1.8249,1.3645,2.3713,1.3089,0.3145,0.5953,-0.8101,-1.6454
3.404,2.8903,2.5245,2.1685,3.1700,2.4769,2.1505,1.1274,1.2587
3.408,1.3185,2.7569,4.1727,3.9098,4.2064,5.9522,3.3976,2.6652
3.412,2.3768,2.0859,3.5320,2.7414,5.5758,6.0737,3.8277,3.4578
3.416,2.9189,1.0336,1.0529,3.7130,4.7915,6.5758,3.7572,3.8534
3.420,0.7802,0.7890,2.6896,1.6129,4.6595,3.5704,3.4754,3.1147
3.424,-2.5990,-0.0839,1.1478,-0.2659,5.8614,5.9598,4.4495,4.1630
3.428,-1.6179,-1.4876,-1.2067,-1.5262,3.7809,4.7212,1.7197,3.3083
3.432,-2.0567,-4.5248,-2.3867,-1.6244,2.2068,1.4564,2.1652,1.7031
3.436,-2.7103,-3.5667,-1.9825,-2.5003,1.3227,0.8419,2.2768,1.2918
3.440,-4.1029,-2.8521,-4.4360,-4.6832,-0.5502,-0.5973,-0.1105,-1.5315
3.444,-5.2658,-5.6601,-4.6215,-3.0793,-0.4119,-2.1678,-0.7975,-1.6665
3.448,-5.6454,-6.1357,-5.6675,-6.0991,-1.2055,-1.4510,-3.2949,-3.5108
3.452,-5.9253,-5.4105,-4.8971,-5.2941,-3.7495,-2.6738,-4.9835,-5.8230
3.456,-6.5867,-6.9433,-5.4107,-5.9362,-3.8882,-4.2528,-6.3360,-6.5980
3.460,-7.5911,-5.9326,-5.6808,-7.6802,-6.7137,-6.4160,-8.6358,-6.3242
3.464,-5.3732,-6.2276,-6.1336,-6.9787,-8.6511,-6.5981,-8.9333,-8.9854
3.468,-7.4925,-6.7039,-6.6645,-7.7001,-7.8162,-9.8419,-10.3056,-11.2808
3.472,-7.8967,-8.7558,-6.3100,-8.5251,-9.7878,-9.3230,-9.9223,-11.6720
3.476,-7.2326,-9.1571,-7.3431,-7.2127,-9.6306,-11.6113,-11.3028,-11.2659
3.480,-9.4235,-6.0885,-8.0511,-6.4545,-13.1570,-10.8989,-10.8830,-11.5412
3.484,-5.3678,-6.9248,-6.3635,-6.3174,-9.2161,-11.9519,-8.6754,-11.2298
3.488,-6.9712,-4.9104,-4.2828,-5.2789,-8.5799,-7.7960,-9.6585,-7.7374
3.492,-4.9086,-3.5357,-3.1373,-3.9277,-5.8579,-6.2302,-6.8399,-7.9572
3.496,-3.1565,-1.7871,-3.1621,-2.0512,-3.0419,-4.2841,-5.6075,-5.2509
3.500,-0.2965,0.7455,0.2240,-0.6867,0.2708,0.9025,-1.9680,-3.0379
3.504,-0.5717,1.1459,0.8945,1.6033,1.8314,2.2086,-0.7565,-0.8404
3.508,1.8924,3.2876,3.6094,2.3115,4.1934,3.0127,3.1122,1.7774
3.512,2.3203,2.6345,3.6755,4.6717,6.1829,5.9007,2.3575,2.9135
3.516,3.8805,4.1194,4.2163,4.6903,6.1837,5.6241,3.2898,3.9401
3.520,4.2951,4.3370,4.6183,5.6292,7.8759,6.0552,6.3174,6.6617
3.524,3.6898,6.1176,5.6036,4.5906,5.3389,7.3436,6.7590,4.8878
3.528,3.2460,5.4255,4.8313,5.5227,7.1048,5.9079,4.5014,4.8914
3.532,5.6832,5.7512,5.4359,6.4129,7.0182,3.6257,4.1916,5.5189
3.536,4.7716,6.1302,5.9311,5.6001,4.8091,3.1336,4.9946,4.8282
3.540,3.2489,6.1843,4.6958,6.0773,3.4392,3.2050,1.5762,2.6101
3.544,3.7759,5.0612,5.0917,4.8166,1.8845,1.9141,2.2304,2.3213
3.548,4.2151,3.9782,3.3956,5.3353,0.7042,0.5356,0.0458,-1.3028
3.552,3.2216,1.9483,3.3148,4.1549,-1.1204,0.6534,-1.1661,-0.4731
3.556,2.3544,3.1478,2.1885,2.7762,-0.5775,-1.5378,-2.4258,-3.3286
3.560,1.3927,2.3669,1.8635,2.0325,-2.1045,-2.8826,-3.4236,-4.5566
3.564,0.2340,0.3575,1.2040,0.7203,-5.7338,-5.6289,-5.1047,-7.7736
3.568,-0.6697,0.6473,1.4079,1.3317,-5.5130,-5.9548,-7.5371,-7.8114
3.572,-2.3171,0.4564,-0.6595,-1.7685,-7.2399,-6.9993,-8.4369,-8.4323
3.576,-2.3736,-2.4619,-2.4514,-1.7494,-8.1618,-8.8081,-9.5673,-9.9452
3.580,-3.8753,-2.6332,-4.1531,-2.3328,-8.9499,-11.1375,-10.1788,-10.7257
3.584,-5.3555,-4.7106,-4.6331,-4.2856,-9.2132,-9.8467,-8.1015,-8.9461
3.588,-4.8091,-3.7384,-4.8385,-2.6542,-7.9408,-8.9032,-7.5402,-7.8706
3.592,-4.0700,-3.9760,-3.6370,-4.6289,-5.3306,-5.7891,-7.6421,-9.1138
3.596,-3.0966,-5.9375,-4.6788,-2.8239,-3.9842,-5.1464,-6.1161,-6.8250
3.600,-4.9980,-2.7800,-3.1823,-4.2062,-2.8949,-2.2180,-4.0413,-3.8125
3.604,-4.0434,-2.5849,-3.5211,-3.3272,-0.6875,-1.1170,-2.5877,-1.8222
3.608,-4.6308,-2.3941,-2.4471,-2.9665,0.5217,1.1489,-1.3311,-2.4410
3.612,-3.1161,-2.9462,-4.1995,-4.3276,1.7529,1.6323,0.2787,0.2068
3.616,-4.1203,-2.7823,-3.2113,-2.7379,3.2016,2.6812,2.9736,1.8939
3.620,-3.8349,-3.1645,-4.6549,-3.2770,2.7654,1.6112,0.5676,-0.1171
3.624,-5.6738,-3.0213,-4.0956,-5.1511,0.5115,1.9913,0.4077,0.4909
3.628,-4.0072,-4.7757,-2.7875,-3.0443,0.5660,1.3599,0.7840,0.9185
3.632,-5.4458,-3.8026,-3.8455,-6.0758,2.0281,-0.3849,0.4276,-0.3900
3.636,-4.2588,-5.0700,-4.7385,-4.9960,-0.1112,-0.5375,-0.7372,-1.1948
3.640,-4.7276,-3.6491,-3.8174,-4.4521,-1.3398,-0.9591,-1.9921,-2.5203
3.644,-4.4531,-4.7994,-3.7471,-4.2853,-0.7888,-1.4707,-1.8673,-3.0407
3.648,-3.3228,-4.2872,-5.3849,-5.1577,-2.7478,-1.7952,-3.8900,-3.5539
3.652,-4.9789,-3.5733,-3.9003,-5.0847,-3.2740,-4.1044,-4.3625,-6.6461
3.656,-2.6931,-2.3575,-5.6058,-3.9301,-4.2561,-5.6803,-4.7068,-7.7896
3.660,-3.4731,-4.3453,-3.8522,-4.5715,-4.3912,-5.2208,-8.6680,-7.7997
3.664,-2.7526,-2.4557,-2.2306,-3.9436,-6.6207,-6.9945,-6.7247,-7.9998
3.668,-2.1459,-3.8625,-1.8108,-2.5713,-7.1740,-8.1390,-8.7548,-8.5982
3.672,-0.5399,-3.1732,-4.6499,-2.5949,-8.2144,-10.0635,-10.9791,-7.5755
3.676,-1.5073,-2.5268,-1.4445,-2.6753,-8.5589,-9.2391,-8.9244,-11.0856
3.680,-2.0288,-1.8395,-0.3585,-1.8199,-7.0763,-8.2896,-8.6969,-9.6877
3.684,-0.3311,-1.2301,0.3730,-0.5322,-6.9361,-8.5441,-8.1518,-7.5783
3.688,-1.0075,-0.2485,-0.9906,-0.1818,-6.8085,-6.8629,-6.6720,-8.0981
3.692,1.4714,0.5745,0.5786,1.0086,-4.4301,-3.9513,-5.5962,-5.0291
3.696,3.1778,2.4933,2.6684,4.5616,-2.8572,-2.6154,-3.1625,-3.8786
3.700,5.1690,3.1122,2.6147,3.1519,-0.5597,-0.4608,-1.3551,-1.8005
3.704,3.8509,4.8401,5.0803,4.9517,2.6072,3.4714,1.4500,0.4549
3.708,5.9969,4.5688,4.5473,5.3057,5.0992,3.0971,2.4296,3.3632
3.712,5.4171,5.5891,5.6463,3.7976,6.3973,5.0629,5.7516,3.7756
3.716,5.2628,5.5119,5.8529,4.9550,7.5402,6.0613,6.0651,2.6360
3.720,6.2345,6.7660,5.7211,3.8481,5.8114,4.2318,4.3158,5.8895
3.724,5.9932,4.0713,5.6495,4.3686,7.0891,4.0350,5.1256,5.6787
3.728,3.9684,3.0169,3.9247,4.1862,3.4038,2.9811,4.3668,3.1100
3.732,3.8576,2.8759,2.7341,3.3935,4.6836,3.0127,3.9859,2.5746
3.736,1.4009,2.3850,2.2996,2.5114,2.3315,2.4764,1.6004,1.4877
3.740,1.1304,0.7869,1.4254,1.3017,1.1605,0.3750,2.6248,0.9542
3.744,0.1922,1.2645,-0.1872,-0.7960,0.4503,0.2609,-0.8906,-0.8867
3.748,-1.3522,0.7242,-1.0123,-1.1222,-1.3485,-0.9064,-3.1953,-2.7492
3.752,-0.7164,-1.8542,-0.8499,-2.2341,-2.6287,-3.1579,-4.6193,-4.5407
3.756,-3.3964,-2.4455,-3.2215,-2.8952,-3.4167,-4.5488,-6.2146,-6.4151
3.760,-3.6557,-3.3913,-4.6635,-4.2307,-5.5964,-6.3840,-8.6799,-8.3056
3.764,-5.7431,-5.2780,-6.1751,-5.3378,-7.1702,-8.5953,-9.1414,-9.6712
3.768,-4.9097,-6.2551,-5.1573,-7.2623,-9.4981,-10.1621,-11.1828,-11.5691
3.772,-6.8896,-6.6844,-6.9610,-9.0444,-9.5448,-11.5259,-12.6809,-12.6559
3.776,-7.4154,-8.1425,-8.7810,-8.5835,-12.1974,-11.4472,-11.5587,-11.1791
3.780,-8.8332,-7.6175,-8.7690,-8.7632,-12.2762,-11.8212,-11.5569,-14.5044
3.784,-9.2294,-8.9263,-8.3391,-9.7109,-13.0759,-11.8966,-12.6157,-12.8104
3.788,-6.7397,-9.2489,-8.8414,-8.5500,-11.3355,-9.6311,-11.6620,-12.2475
3.792,-7.7335,-7.9607,-9.0545,-7.4884,-8.6598,-10.4124,-9.2085,-10.0274
3.796,-7.1629,-6.3614,-7.0434,-6.9636,-6.5084,-4.4739,-6.4510,-8.0132
3.800,-5.7952,-5.9173,-4.6645,-5.7406,-4.9350,-4.8858,-5.5653,-5.1752
3.804,-3.7543,-4.9856,-4.5892,-6.0065,-3.1824,-1.8079,-4.8889,-3.8886
3.808,-3.7247,-2.9416,-4.1855,-2.9471,-0.1382,0.7934,-1.2569,-4.0602
3.812,-3.0189,-1.2990,-4.3474,-3.3102,0.3645,2.4332,-0.0836,0.4063
3.816,-2.0399,-2.2234,-3.4128,-2.6965,2.2583,1.5381,1.4447,0.8755
3.820,-1.6039,-2.2618,-0.6213,-1.3064,2.1654,2.1286,2.3564,1.7256
3.824,-1.4776,-2.1185,0.0096,-0.6110,2.0671,2.3640,2.9369,1.9937
3.828,-1.0446,-0.8059,-0.3916,-2.2718,2.4751,2.0867,2.1116,2.4358
3.832,0.1524,0.2083,1.0592,-0.2498,1.2721,1.8607,1.1675,2.0017
3.836,-0.2473,-0.1678,0.3197,-0.7295,0.1025,-0.3720,1.5986,-0.6511
3.840,-0.2462,0.4388,-0.8963,-0.0351,0.8877,-0.0615,-0.4509,-0.6677
3.844,1.0008,1.0669,1.2016,-0.6639,0.1643,-0.7543,-0.3038,-1.4626
3.848,3.5819,2.2342,0.9327,0.9798,-2.0405,-1.7610,-1.5638,-1.9847
3.852,1.1064,2.2161,1.4972,2.4938,-1.1240,-0.9826,-4.1922,-2.2534
3.856,2.2434,2.1488,-0.1230,1.8780,-2.4866,-1.7556,-3.7059,-3.8548
3.860,1.6626,1.9499,1.5771,0.9967,-3.0524,-3.0400,-5.8066,-6.3137
3.864,1.6965,1.3819,2.5930,1.5860,-3.8040,-4.8075,-7.5904,-6.3537
3.868,1.8037,2.8911,0.9698,0.6492,-6.7585,-6.1335,-8.2761,-9.6795
3.872,1.7684,1.4187,-0.6633,0.5146,-6.3896,-7.0163,-7.1611,-8.5931
3.876,2.0734,2.4566,0.8406,-0.3148,-8.8533,-9.6699,-10.0051,-10.1270
3.880,1.1534,-0.2866,0.9910,-0.7398,-6.9670,-8.8773,-9.1117,-9.0792
3.884,0.6457,1.1914,-0.9571,-0.4925,-7.6371,-7.9027,-8.0195,-9.0401
3.888,0.8882,0.1591,0.8804,-0.1570,-6.8590,-7.5654,-6.4458,-6.8538
3.892,0.3947,1.1868,-0.2157,-0.0575,-5.6517,-5.4935,-5.0039,-6.7975
3.896,0.2779,2.4148,0.1213,1.1193,-5.0834,-2.5173,-3.3501,-3.4392
3.900,0.9962,1.3402,0.7085,0.5354,-2.4438,-1.3969,-2.1298,-3.1822
3.904,1.7109,1.4484,1.7443,0.5956,0.7427,0.4742,-0.2979,-0.3610
3.908,2.0470,-0.1536,1.2105,2.0290,2.8049,2.2511,0.9888,-0.0882
3.912,1.8076,2.9652,0.3574,-0.3152,3.3226,2.7628,2.4248,1.3454
3.916,2.2649,1.7895,1.3915,1.0955,3.6629,2.8159,2.2013,1.5674
3.920,0.9976,-1.2692,0.9650,-0.4397,3.6949,4.1850,1.3739,1.9034
3.924,-1.1306,0.4430,-1.9010,-0.8908,1.7564,3.4550,1.8191,-0.7446
3.928,-1.7795,-1.9081,-1.2612,-3.3738,1.1322,-0.0324,0.4487,0.2966
3.932,-3.3812,-2.4845,-3.6690,-3.5696,1.5640,-0.6793,-0.6346,-0.4118
3.936,-4.0848,-3.1078,-4.1699,-5.8054,0.2835,-1.6746,-0.1393,-0.3297
3.940,-3.3542,-4.9873,-5.9751,-4.4992,-2.4548,-2.3841,-0.4891,-2.0253
3.944,-3.7168,-4.8575,-6.3668,-5.8164,-3.1895,-3.2813,-4.0144,-4.9724
3.948,-4.5322,-4.8098,-7.0917,-6.4799,-4.1985,-3.9037,-6.0294,-5.3106
3.952,-7.8789,-5.3900,-7.9754,-7.2295,-7.3059,-5.8779,-6.9565,-7.0545
3.956,-6.1738,-5.9324,-7.8926,-9.3656,-6.4824,-5.3681,-8.3816,-9.0810
3.960,-6.7810,-6.8688,-6.4135,-7.4724,-7.7397,-8.5395,-8.0178,-9.9059
3.964,-7.7892,-6.8666,-8.5594,-8.5647,-9.6913,-10.3579,-11.9042,-10.5484
3.968,-6.3320,-8.7278,-8.8226,-9.3536,-10.7475,-11.6702,-12.1957,-13.4091
3.972,-7.9885,-7.9164,-8.1710,-8.8509,-11.8631,-12.0140,-12.7250,-11.8414
3.976,-8.4122,-8.2617,-10.0993,-8.1852,-12.1062,-11.7552,-13.1599,-13.4138
3.980,-7.8173,-6.6729,-7.8604,-8.1981,-11.5833,-14.7866,-12.3534,-13.9305
3.984,-6.6106,-6.6640,-7.8260,-9.6566,-11.8204,-11.1427,-12.2026,-11.7271
3.988,-7.4426,-7.4453,-6.8160,-6.5527,-9.1112,-11.7806,-11.4977,-11.2729
3.992,-3.6055,-3.9308,-4.9650,-6.8634,-7.9320,-9.5138,-8.9613,-9.3664
3.996,-3.0017,-1.7591,-3.5654,-4.8861,-4.5593,-4.3615,-6.1669,-7.1788
4.000,-2.0149,-0.6723,-2.1431,-3.5107,-3.3544,-3.0639,-4.4148,-3.7661
4.004,0.9300,1.5550,-0.6374,-1.1350,-1.0582,-1.6783,-1.0317,-1.8061
4.008,1.1525,2.0896,2.0395,0.3356,1.8153,0.1361,0.0036,0.7215
4.012,3.4866,2.4998,2.4133,0.6216,5.0718,2.7620,0.8019,0.9436
4.016,3.4958,4.4855,2.9209,1.6791,4.0285,3.5934,3.4429,4.6002
4.020,4.3513,4.7272,3.8071,2.5278,3.5600,3.9454,4.3195,4.6121
4.024,4.2394,4.7931,3.5857,2.0243,4.2856,4.6534,1.7025,3.5934
4.028,4.4984,4.1424,3.2887,2.8634,3.5576,2.7964,4.3776,3.6862
4.032,4.6731,3.4251,3.7608,3.3620,2.9054,2.6801,3.4994,2.8692
4.036,5.0181,4.0648,3.3438,3.2270,2.0495,2.6927,3.1634,2.6041
4.040,4.9408,4.2851,2.7388,2.6251,1.6215,1.8036,0.9390,0.7089
4.044,3.6180,3.0870,2.5175,2.8091,0.4908,-0.4134,0.1969,0.4300
4.048,3.0917,4.2388,2.5083,1.5001,-1.0214,-0.7123,-1.4375,-0.3327
4.052,2.5807,2.9174,2.8608,1.6873,-0.7921,-1.1772,-1.7428,-2.9818
4.056,2.6179,1.9904,1.9157,0.5679,-3.2184,-3.5128,-4.4104,-5.0254
4.060,1.3594,2.4076,0.6440,0.6044,-2.6902,-5.5088,-5.8079,-5.4747
4.064,0.8119,-1.1828,-1.1793,-0.3458,-5.8478,-6.2484,-8.1549,-8.2176
4.068,-0.4632,-0.5354,-1.8143,-1.2299,-7.7603,-7.3562,-9.2349,-9.5361
4.072,-0.8909,-1.5375,-3.2203,-3.0822,-9.2438,-9.6990,-9.7533,-10.1778
4.076,-2.1677,-1.7856,-5.6243,-4.4705,-11.3979,-10.8394,-11.2041,-10.7848
4.080,-3.1615,-4.0644,-5.1153,-5.0323,-11.2267,-12.4729,-12.8643,-10.2088
4.084,-4.7470,-5.9192,-4.8819,-5.6137,-11.4441,-10.7858,-10.5927,-11.0030
4.088,-4.7905,-4.6596,-5.8383,-6.8214,-12.4812,-9.1380,-9.4030,-10.6178
4.092,-3.1130,-5.5102,-6.3841,-7.3771,-8.0922,-7.2505,-8.7559,-9.7801
4.096,-4.0833,-4.4123,-4.7072,-5.9710,-5.9814,-7.8370,-7.4293,-7.4715
4.100,-3.8601,-3.4213,-5.1400,-6.8633,-4.2457,-3.7518,-7.0776,-6.4175
4.104,-2.9562,-3.9453,-3.9453,-5.5048,-2.7948,-4.2114,-5.5110,-2.8909
4.108,-2.4350,-3.0370,-5.0174,-5.3075,-1.2622,-1.7081,-3.0860,-3.1525
4.112,-3.9712,-3.0243,-4.5168,-5.9579,0.7932,0.0080,-0.8400,-2.2340
4.116,-4.1896,-3.4814,-5.3678,-5.2313,0.3443,0.2021,-0.7902,-0.1127
4.120,-4.1869,-4.4284,-5.2984,-5.5250,0.2809,1.5899,-0.8912,-0.5828
4.124,-4.8951,-5.3634,-6.0469,-5.1137,-0.1591,1.1262,0.6325,-0.4058
4.128,-4.4067,-3.7770,-6.4426,-6.8213,-0.8729,0.1887,-1.5621,-1.8508
4.132,-6.1418,-5.3999,-4.9004,-5.7194,-2.1038,-1.5654,-1.4480,-0.3438
4.136,-4.6993,-5.4676,-5.1363,-4.5986,-1.6267,-2.3090,-1.4251,-0.8943
4.140,-5.4491,-5.0861,-5.8480,-7.4051,-4.1534,-4.5042,-4.2767,-2.7034
4.144,-4.4786,-3.4592,-6.5365,-7.0428,-4.3709,-3.7577,-6.1425,-4.2698
4.148,-4.5205,-2.8819,-3.9349,-4.7588,-4.3384,-5.0797,-4.5866,-5.3435
4.152,-3.9603,-4.4533,-5.6952,-5.7735,-6.7059,-5.1738,-6.0537,-6.7983
4.156,-3.0331,-4.3156,-5.7564,-5.5413,-5.8745,-6.2299,-7.4707,-7.9904
4.160,-2.0795,-4.2047,-4.5153,-5.6097,-6.2868,-7.9483,-8.2228,-6.9111
4.164,-3.0009,-3.5184,-4.8763,-4.6269,-9.5583,-8.6752,-10.3404,-10.6193
4.168,-3.1908,-4.7488,-4.6618,-5.6188,-9.0622,-8.2552,-12.0485,-8.9024
4.172,-3.8912,-1.7718,-3.4755,-5.5864,-9.7700,-12.0639,-11.8202,-11.6727
4.176,-1.3182,-2.5122,-2.7791,-5.0244,-11.2373,-10.8648,-12.5324,-10.4613
4.180,-1.5520,-2.1725,-3.1861,-3.7832,-10.5584,-11.4131,-9.9875,-10.1550
4.184,-1.7783,-1.3832,-2.2005,-1.9604,-10.0067,-9.2388,-10.1170,-9.9063
4.188,0.5115,-1.8736,-2.3219,-2.0884,-8.7745,-7.7677,-8.8251,-7.7773
4.192,-0.7897,0.7841,-1.8392,-2.3060,-5.3095,-6.2649,-5.3872,-6.0365
4.196,1.3896,0.8436,-0.5416,-1.4794,-3.9356,-4.5250,-3.8637,-2.0779
4.200,3.9028,3.7049,2.9262,1.8013,-0.9536,-1.8191,-2.2757,-2.9290
4.204,3.3483,3.8455,3.6599,2.4297,0.9734,0.9217,0.6580,-1.6086
4.208,5.1816,4.1912,4.2717,3.2443,2.9390,2.5372,1.4164,1.4663
4.212,5.7995,4.9215,3.3438,3.7246,3.5775,4.2089,3.7798,2.2631
4.216,4.0224,4.1490,4.3837,3.3805,3.4932,4.7670,4.0689,3.8848
4.220,5.9805,3.7445,3.7004,3.9039,3.2495,2.2841,5.4125,4.5636
4.224,3.4882,4.6007,2.6807,3.2216,5.1699,3.3843,2.6020,3.9620
4.228,5.2469,4.6943,3.4342,3.4040,3.1734,3.7913,3.6337,2.9960
4.232,3.8161,3.4610,0.4353,0.8344,1.5629,1.0678,1.4259,2.2414
4.236,2.3396,1.6278,-0.1965,1.3653,1.3677,1.2098,1.1544,1.8877
4.240,1.9040,1.3702,0.0704,-0.6551,-0.8057,-0.6388,-3.1417,-0.9726
4.244,1.7361,-0.0198,-2.1220,-2.4140,-2.2921,-1.6133,-0.2549,-2.3219
4.248,-2.0295,-0.5674,-1.3739,-3.0320,-2.1383,-4.1499,-2.5864,-3.1905
4.252,-2.2962,-1.7781,-4.2163,-2.7623,-5.5821,-3.9045,-6.1012,-4.7048
4.256,-3.9134,-3.5981,-5.1275,-4.1232,-5.0049,-5.5926,-6.2348,-5.7930
4.260,-3.7005,-4.8718,-4.9894,-5.7654,-7.8918,-7.7745,-9.5510,-9.0164
4.264,-6.0864,-6.5402,-6.8509,-7.3949,-8.1120,-9.7727,-9.5267,-9.9429
4.268,-7.2743,-6.0112,-7.5363,-9.4445,-10.6204,-11.0473,-10.7429,-10.4479
4.272,-8.0106,-8.3222,-7.4636,-9.9154,-12.4676,-11.2553,-12.3547,-13.2275
4.276,-7.9205,-8.9606,-7.9180,-12.3156,-13.7066,-12.7507,-12.5994,-13.9039
4.280,-10.3722,-9.0392,-10.9732,-10.0301,-13.3329,-13.3016,-12.9625,-13.0178
4.284,-8.0512,-10.1912,-11.4231,-12.3243,-13.7304,-12.1252,-12.4843,-11.9601
4.288,-8.2463,-10.2504,-9.2630,-10.1164,-11.7952,-12.8670,-11.2604,-10.4925
4.292,-9.6276,-7.8293,-9.9264,-7.9321,-10.4330,-10.5132,-9.5696,-9.5907
4.296,-6.5439,-8.0950,-8.8638,-10.7900,-8.5796,-8.1677,-8.2223,-7.4238
4.300,-7.6685,-5.4911,-7.6857,-8.4230,-5.1703,-5.1497,-7.5463,-7.0349
4.304,-5.1812,-5.0197,-6.4370,-5.8759,-2.0230,-2.9606,-4.2021,-4.5075
4.308,-3.9010,-4.4382,-6.7405,-4.7290,-0.5844,-1.6214,-0.9288,-3.1117
4.312,-2.0538,-2.9907,-4.5950,-5.2413,-0.3946,-0.1230,-1.0985,-2.8796
4.316,-2.1217,-2.1457,-3.9358,-5.8758,-0.2010,-0.2161,1.1334,-0.5336
4.320,-0.6013,-1.6125,-3.4110,-2.7819,1.5156,1.5278,1.5902,-0.1374
4.324,-1.6725,-1.2953,-4.0769,-2.7523,2.1076,1.2878,1.5290,0.9969
4.328,0.4177,0.0904,-1.8131,-3.1214,0.7638,-0.7598,1.6044,0.6420
4.332,-0.0644,-0.0330,-2.0068,-2.2914,0.0716,-0.9935,1.7208,0.8051
4.336,-0.2599,-1.1668,-1.6795,-2.3591,-0.0841,1.3115,0.4796,1.3882
4.340,-0.1753,0.5164,-0.5244,-1.6047,-1.1733,-0.9830,0.0606,-0.1902
4.344,0.3778,-0.7937,-0.0498,-0.9540,-1.5941,-1.4373,-0.6912,-0.8859
4.348,0.5122,0.3978,-1.6188,0.2257,-0.8493,-2.7347,-2.4395,-2.3483
4.352,1.2883,2.0531,-0.7080,-0.1100,-3.4437,-3.1762,-3.8073,-1.8599
4.356,0.7975,2.2348,-0.8557,-1.6887,-3.9905,-3.9547,-5.1168,-5.6973
4.360,1.4818,-0.3392,0.9450,-1.3996,-6.3960,-5.0280,-5.3563,-5.6987
4.364,3.2239,2.2208,-0.2898,-1.4433,-5.7301,-5.4272,-7.4786,-6.2956
4.368,0.9826,1.1904,-0.3853,-0.3720,-7.0956,-7.2483,-6.1887,-8.2428
4.372,1.6511,0.7288,0.1088,-0.8818,-8.0649,-8.1904,-8.5185,-8.1678
4.376,0.9607,0.5024,-1.7537,-0.3267,-8.1186,-9.0370,-7.6138,-7.1704
4.380,-0.3174,0.1848,-1.7218,-0.6671,-9.8896,-10.2173,-9.0748,-9.0792
4.384,1.4965,1.1340,-1.9131,-0.8544,-8.4661,-9.9746,-8.2793,-8.2963
4.388,0.3745,-1.8440,-0.3984,-1.4815,-8.6615,-8.6833,-7.3385,-7.3509
4.392,2.2028,-0.8736,-0.9102,-1.6082,-5.9850,-7.8218,-7.1798,-5.1659
4.396,0.9280,-0.0911,-1.2324,-0.1735,-3.2259,-5.4730,-5.9451,-4.7008
4.400,1.4995,2.1779,-1.8524,-0.9084,-1.6206,-1.0898,-2.9201,-1.3497
4.404,2.4892,2.4833,-0.5670,-0.3403,0.5090,-1.4572,-1.6280,-1.1679
4.408,1.6869,1.2246,-0.5914,0.4479,1.5919,2.1694,-0.4737,1.5106
4.412,0.7564,0.7606,0.7799,-0.5717,0.9660,2.0635,1.0494,1.5103
4.416,1.4594,0.8183,-1.5808,-1.9176,1.9504,2.0979,2.1659,1.6531
4.420,-0.1954,-1.2146,-1.1646,-3.6922,1.2213,1.2812,2.9166,1.7284
4.424,-0.8250,-1.0648,-2.5073,-3.9278,1.3287,1.8238,1.6362,1.6083
4.428,-2.7781,-1.8749,-3.5790,-4.1438,1.4454,0.9621,-0.3981,1.5900
4.432,-2.4317,-3.7116,-5.4310,-4.7808,-1.7072,-0.2506,0.0526,-0.1548
4.436,-4.1924,-3.1856,-5.7539,-5.8988,-2.0144,-2.2661,-0.6868,-0.0230
4.440,-5.2165,-5.6631,-5.6943,-6.0237,-2.7510,-3.1427,-2.6783,-1.7106
4.444,-5.4148,-5.7608,-6.0718,-6.5793,-3.1639,-4.7300,-4.4352,-5.2257
4.448,-6.3953,-6.9537,-6.6337,-7.9022,-5.3860,-5.0059,-5.4010,-6.9019
4.452,-6.5153,-6.7201,-7.5402,-8.3415,-7.4278,-6.7232,-5.9931,-5.9593
4.456,-6.4929,-6.5291,-9.8716,-8.8772,-8.3904,-7.1636,-9.3659,-8.5524
4.460,-7.1188,-7.0439,-8.9874,-9.5222,-8.7145,-9.6314,-8.7089,-9.3240
4.464,-8.6330,-7.5964,-9.8175,-9.3516,-10.0859,-9.9742,-11.5639,-10.0932
4.468,-10.0429,-9.5467,-10.4813,-10.9570,-11.6857,-11.1656,-11.3673,-12.0778
4.472,-9.0450,-10.1194,-10.3142,-10.8034,-11.9170,-12.6627,-13.4152,-11.9026
4.476,-8.0378,-7.8883,-10.3228,-10.4383,-14.8872,-14.4863,-12.0525,-12.5726
4.480,-7.5090,-6.3081,-10.0549,-10.1505,-14.1465,-12.4806,-11.6906,-12.4431
4.484,-7.6935,-6.3601,-8.0634,-8.6439,-12.6752,-11.0073,-11.4727,-11.6735
4.488,-6.7713,-5.3835,-7.3128,-9.4986,-11.5213,-9.6270,-10.1028,-9.7024
4.492,-4.5428,-5.2606,-5.6793,-7.5585,-9.2301,-9.0280,-7.1121,-7.5195
4.496,-4.5722,-2.2103,-4.1835,-5.0037,-7.7273,-5.4146,-6.0636,-4.7217
4.500,-1.2211,-0.9651,-2.2193,-3.8812,-2.9564,-5.1675,-5.2531,-3.5683
4.504,-0.0666,-0.5007,-1.3200,-2.7002,-0.0553,-1.1730,-1.1521,-1.5086
4.508,0.5230,1.4763,0.0962,-2.0634,0.8652,1.2813,-0.0439,1.2044
4.512,3.4515,4.3120,0.1989,-0.3606,3.3774,3.0377,1.4444,2.5354
4.516,3.0245,2.2808,1.6397,1.4367,3.0947,4.5347,3.5926,1.9453
4.520,4.2061,2.9899,1.2654,3.4606,4.6979,4.3181,4.4196,4.0457
4.524,4.0401,4.0525,1.8707,1.7107,2.8599,3.9045,3.3029,4.3849
4.528,4.3710,4.5536,2.8648,3.2209,2.4264,2.6482,5.6993,2.6413
4.532,4.9383,4.4118,3.5315,1.7753,2.8112,3.4803,3.2878,3.6739
4.536,3.7591,3.2630,1.4065,1.8973,1.1410,1.1230,2.6402,1.8841
4.540,3.1049,3.6973,2.9105,2.1380,2.0878,1.2857,2.1280,2.2494
4.544,3.8489,3.5708,1.8959,2.9172,-2.3664,0.7497,0.6087,2.6798
4.548,4.4639,3.5154,1.6410,0.2887,-1.4515,-2.5218,-0.1819,-0.4796
4.552,2.4825,3.0787,1.9010,0.4405,-1.7092,-2.7187,-2.4997,-1.3510
4.556,1.7804,2.5490,0.0765,0.1386,-2.6489,-2.8825,-4.9213,-1.7747
4.560,0.1910,1.7898,-0.1998,0.0428,-5.6045,-5.6586,-5.4562,-5.5038
4.564,0.9249,-1.2016,-1.3520,-1.1568,-6.3843,-6.4677,-7.1327,-6.3712
4.568,-2.2129,-1.1712,-2.9076,-3.9744,-9.3097,-8.7862,-7.6870,-8.7091
4.572,-1.0046,-1.3757,-2.7433,-3.3200,-9.5515,-9.3346,-10.0958,-8.1936
4.576,-2.2877,-4.8486,-4.3473,-5.3601,-10.3378,-12.1359,-9.4169,-10.6021
4.580,-5.1973,-4.6235,-4.1116,-6.7980,-10.6952,-11.6451,-10.7042,-9.7079
4.584,-4.5200,-6.2471,-6.7422,-8.1348,-9.2222,-10.2296,-11.3026,-9.8557
4.588,-3.7152,-4.6568,-6.6511,-6.2425,-10.3906,-10.0740,-8.4876,-8.6272
4.592,-4.5383,-6.2268,-7.5685,-6.1760,-9.5736,-7.0491,-8.0222,-8.3711
4.596,-4.0878,-5.7312,-7.2905,-7.7835,-6.5090,-6.1564,-6.6666,-6.1432
4.600,-5.0822,-5.2535,-5.8882,-6.8846,-4.4941,-5.8629,-3.8484,-5.7937
4.604,-4.5267,-4.7127,-4.8362,-5.2784,-2.4911,-2.3778,-3.3235,-1.5877
4.608,-3.9735,-4.4414,-5.3124,-4.8399,-2.5869,-0.9354,-3.3285,-1.7875
4.612,-5.0830,-4.9696,-6.1927,-7.6327,0.0944,-0.1269,-0.3926,-0.5529
4.616,-4.2073,-4.7132,-4.8167,-5.5755,0.8833,1.1284,-1.5473,0.2786
4.620,-4.4876,-5.9970,-4.8727,-5.8488,0.2340,0.8332,0.2700,0.5968
4.624,-5.1192,-5.6296,-6.2992,-8.4108,-1.2925,0.8436,1.2095,-0.1785
4.628,-4.9440,-5.4485,-6.4134,-6.1387,-0.2391,-0.9334,0.3728,-0.1588
4.632,-5.1133,-5.0475,-6.9433,-7.4927,-3.0529,-1.3121,0.3349,-0.5658
4.636,-5.5152,-7.5275,-7.4320,-8.5820,-2.9789,-3.0990,-2.1608,-2.2162
4.640,-6.1076,-5.4769,-7.0025,-6.6842,-1.0080,-3.2639,-2.0422,-1.4452
4.644,-4.5078,-5.8818,-5.6868,-6.7176,-4.0160,-4.7603,-3.7971,-2.8792
4.648,-3.7531,-5.0840,-6.1539,-6.8687,-3.5948,-3.5950,-4.0501,-4.3262
4.652,-4.4122,-5.5373,-5.6527,-7.5001,-4.4769,-5.1341,-5.2517,-4.5480
4.656,-4.0793,-5.1470,-5.3208,-4.7209,-5.5052,-7.7157,-7.0705,-6.7163
4.660,-4.6365,-4.4209,-5.3851,-6.5297,-7.8862,-8.6507,-6.7280,-6.1341
4.664,-3.1041,-3.4831,-4.7353,-6.0968,-7.4399,-6.8581,-8.5044,-7.0788
4.668,-2.9483,-3.7229,-5.0512,-6.5977,-8.8249,-9.5700,-9.0869,-7.9773
4.672,-3.7434,-1.9022,-4.7234,-5.7175,-10.2015,-10.1686,-9.3118,-8.0121
4.676,-3.3073,-3.4975,-4.6144,-4.2593,-11.0690,-10.8921,-9.6203,-8.5049
4.680,-1.3468,-3.5806,-4.3220,-3.9972,-9.7061,-10.9896,-8.6386,-8.7562
4.684,-1.8835,-3.1826,-1.8052,-2.9103,-9.4049,-8.9714,-7.9882,-7.6526
4.688,-1.3582,-0.5169,-2.1310,-3.2870,-9.2740,-6.7692,-7.7123,-6.7351
4.692,0.1892,-0.0300,-1.4201,-0.7587,-5.6085,-5.4008,-5.2878,-3.6549
4.696,1.4439,1.3579,0.2718,-1.1549,-3.5349,-0.9765,-3.7194,-4.1282
4.700,1.6167,2.0024,1.1233,1.3226,-0.7539,-0.5597,-1.4934,-0.9234
4.704,3.9087,3.0273,2.0919,2.1043,0.7104,2.4898,0.0003,1.0164
4.708,4.8917,2.9558,2.9305,1.9554,1.9371,2.4596,2.8256,2.7476
4.712,4.6624,4.4585,2.0266,3.5289,3.7033,4.0895,5.0318,4.6013
4.716,3.2233,4.4704,2.1087,2.7217,4.5018,5.6658,3.3647,5.7209
4.720,4.1469,3.6862,1.7397,3.3360,4.7046,5.3077,5.2160,6.4996
4.724,3.8853,5.0129,1.6577,2.1330,3.9159,3.6516,5.1822,5.2313
4.728,1.7419,2.7470,2.1476,1.2433,3.2086,3.2942,3.7479,4.8466
4.732,1.7089,1.6680,2.0336,0.9764,0.7213,3.5403,4.6712,4.2539
4.736,1.3313,1.7565,-0.7685,1.4924,0.5307,1.5048,3.0699,3.2764
4.740,0.2362,1.6486,-1.1291,-1.5251,-1.6168,-1.0494,-0.0135,1.3749
4.744,-0.7108,-0.8756,-1.8427,-4.8057,-2.1898,-2.3755,-1.1103,0.2446
4.748,-1.5182,-1.4899,-1.8698,-3.0762,-3.0983,-2.6551,-1.3204,-1.1892
4.752,-1.7255,-2.3362,-4.0100,-3.5337,-4.1845,-5.0768,-2.9207,-3.4989
4.756,-4.0501,-3.8871,-4.5758,-4.7704,-6.2557,-5.5340,-6.5151,-4.7037
4.760,-3.3251,-4.4125,-6.5312,-5.8202,-6.2874,-7.8432,-7.5214,-6.9125
4.764,-6.6187,-6.6300,-7.6561,-7.2484,-8.4419,-10.4622,-9.1083,-9.2071
4.768,-6.5517,-7.0491,-7.8575,-9.2367,-10.6827,-9.7429,-11.6304,-11.6513
4.772,-8.7297,-7.5184,-8.4489,-9.6566,-11.6162,-10.5504,-10.7259,-10.1652
4.776,-9.8157,-9.4771,-11.0502,-11.0084,-12.8484,-11.9968,-11.0072,-11.3092
4.780,-9.6801,-10.1455,-10.7991,-10.8549,-13.1245,-12.1851,-12.7501,-12.1007
4.784,-9.4657,-10.8803,-10.4867,-11.6669,-12.7406,-10.9929,-11.6048,-10.7916
4.788,-8.1566,-10.1999,-11.0483,-11.7737,-10.6750,-11.9444,-9.2616,-9.5647
4.792,-8.7495,-8.1038,-10.9894,-9.9967,-10.1603,-7.9622,-8.0838,-8.6708
4.796,-7.2931,-7.4120,-9.6482,-9.3366,-9.5994,-8.5758,-7.1891,-6.5133
4.800,-6.7965,-7.4174,-8.1669,-8.1753,-4.5646,-5.3770,-5.1077,-4.9847
4.804,-6.0275,-4.3978,-7.6265,-6.6783,-1.7683,-2.0034,-3.4968,-2.1985
4.808,-4.4453,-5.3566,-6.3379,-6.4641,-0.4332,-2.5972,-2.0924,-2.2858
4.812,-5.2887,-4.6464,-4.2335,-4.2451,0.9057,1.2942,0.4559,2.5852
4.816,-2.6608,-3.4694,-3.7495,-4.6431,0.3025,1.9135,1.8095,2.6087
4.820,-1.2442,-2.3210,-3.3513,-0.8288,0.4720,0.7726,1.8221,3.5161
4.824,-1.8146,-3.4201,-4.1117,-3.6227,0.5571,0.4251,1.9464,2.5942
4.828,-0.8777,-1.8593,-2.4835,-2.8902,1.2072,1.2180,3.6141,2.7252
4.832,-1.4104,-0.9714,-2.0759,-3.6602,-0.2964,0.3515,1.3749,1.8236
4.836,0.8308,-2.1283,-2.1518,-2.2124,-0.3851,-0.2750,0.6159,2.1139
4.840,-1.4207,-1.6534,-1.8174,-2.4237,-0.1354,-1.6291,1.5816,1.8614
4.844,0.3231,0.1436,-0.6151,-1.5640,-0.7903,-1.9792,0.0630,0.6171
4.848,0.0838,1.2647,-0.9421,-1.5364,-0.9224,-0.9239,-1.7885,0.6165
4.852,-0.2442,0.5677,-1.5283,-0.8716,-2.1827,-2.1232,-1.9122,0.9591
4.856,0.4635,0.8442,-0.8126,-1.3900,-3.3373,-2.1389,-2.5006,-0.3580
4.860,2.6245,0.5853,1.5968,1.8175,-4.0220,-3.3379,-3.8326,-2.7073
4.864,1.3258,0.0358,-0.1272,-1.3514,-5.6750,-5.6399,-5.3439,-5.6966
4.868,1.1059,-0.1864,0.2437,1.0306,-6.5075,-5.8067,-5.6391,-5.2101
4.872,0.8275,-1.0675,-0.5727,-0.8224,-5.6831,-6.6858,-5.9149,-7.0940
4.876,0.6591,-1.0402,-0.4549,-0.3101,-7.9406,-7.9150,-7.8889,-7.2857
4.880,-0.8610,-0.4520,-1.6261,0.6418,-6.1789,-8.3215,-7.8590,-6.9243
4.884,-0.4031,0.1234,-1.3984,-1.6756,-8.0483,-7.8043,-6.9717,-5.4135
4.888,0.6256,-0.9940,-2.3221,-0.6969,-6.9904,-5.8461,-3.6760,-5.1386
4.892,1.1017,-0.6065,0.0269,-1.5653,-6.4537,-6.0214,-3.6589,-3.9650
4.896,0.8467,-0.1078,0.0457,0.1666,-3.0179,-2.4296,-3.0739,-1.8339
4.900,1.5510,2.4700,0.8614,-0.1911,-1.9219,-1.1883,-0.1480,0.6191
4.904,2.2987,0.9357,-0.4993,0.1132,0.4006,1.5094,-0.0880,1.1857
4.908,1.8497,1.9437,0.8781,-0.4121,2.7607,2.7248,2.4324,2.1231
4.912,0.7404,-0.0206,0.3768,-1.0357,2.7886,2.1780,2.5092,3.4855
4.916,-0.6646,0.5996,-2.1674,-0.7361,3.8419,4.1058,3.2091,4.3613
4.920,-1.1031,-0.4728,-1.4368,-0.1279,1.8933,6.4483,2.7797,3.6698
4.924,-1.1128,-3.7033,-2.5714,-2.2695,1.4546,3.7838,3.3691,3.2378
4.928,-2.2090,-3.4488,-4.0214,-3.6784,1.6816,0.8300,2.7493,2.5906
4.932,-5.1348,-4.7679,-5.8191,-5.5591,0.4861,0.5254,0.1692,3.5855
4.936,-5.3821,-4.5124,-6.7088,-5.1018,-0.3944,-0.7205,0.5606,1.5374
4.940,-4.8222,-4.5454,-7.0426,-7.1665,-3.3850,-2.9905,0.9411,-0.3965
4.944,-6.2712,-6.9607,-8.1400,-7.0576,-3.9310,-1.5734,-1.4190,-0.4322
4.948,-7.3648,-8.3615,-7.4344,-9.0300,-4.4760,-2.5099,-3.2580,-1.0337
4.952,-8.7019,-7.1774,-8.0633,-8.1046,-5.4786,-5.3243,-3.8493,-3.5853
4.956,-7.3239,-7.6518,-7.1051,-7.7844,-6.5103,-6.4612,-6.2185,-5.4497
4.960,-8.1961,-8.0495,-9.4238,-8.8949,-8.1215,-7.1862,-6.1567,-7.2302
4.964,-8.8126,-7.5757,-9.6323,-9.6514,-10.4204,-10.3434,-7.9562,-7.5867
4.968,-7.8456,-6.8747,-9.2318,-9.6175,-9.0557,-9.1715,-9.9428,-8.1751
4.972,-8.9247,-8.4629,-10.1655,-9.7608,-10.7647,-11.0713,-11.6003,-8.9062
4.976,-9.5249,-8.6102,-9.1622,-10.3185,-11.7202,-11.2248,-8.3220,-9.6061
4.980,-8.7953,-8.0965,-9.5363,-10.2682,-11.6851,-11.8472,-8.8198,-8.7526
4.984,-7.7031,-6.6408,-7.2279,-9.0679,-11.5727,-9.5926,-8.7547,-9.1954
4.988,-5.6841,-7.4683,-7.0419,-8.4802,-7.7592,-10.3600,-8.4245,-6.3755
4.992,-3.8644,-5.3876,-5.7979,-6.1086,-6.9328,-7.9460,-5.9179,-5.0630
4.996,-2.3871,-2.3721,-5.2367,-3.3651,-4.9772,-5.1022,-4.3478,-3.3078
5.000,-3.3787,-1.6543,-4.3090,-3.8653,-2.3117,-1.4254,-0.7318,-0.7956
5.004,-0.1203,-0.3600,-1.0692,-3.3027,-0.0196,0.9795,0.6579,1.2625
5.008,0.7667,1.4162,0.1480,-0.6231,2.5706,3.4579,3.2508,3.6032
5.012,1.9327,0.0509,0.9549,0.8668,3.3081,4.6503,4.2820,4.3041
5.016,3.9410,1.6832,1.4899,2.3529,4.7390,4.7253,4.6660,6.9733
5.020,5.2116,2.4636,2.6933,0.9979,5.3774,3.8712,4.8649,6.1800
5.024,3.7097,3.1187,3.0166,3.9420,4.6113,5.6814,6.4103,6.7265
5.028,3.8626,4.0779,2.9633,3.1381,3.6912,5.2150,6.4302,5.7689
5.032,3.4214,1.7792,2.3143,3.9040,2.4610,4.7133,4.2633,6.1597
5.036,2.6462,3.4159,1.0256,1.3514,2.6076,2.8165,5.4893,4.6929
5.040,2.0862,1.8679,3.7646,2.8152,1.9472,2.4633,3.5583,4.3994
5.044,3.5065,2.8167,3.8011,2.6875,2.3507,1.8054,2.5500,1.4451
5.048,2.9097,2.1575,1.9181,2.7678,-0.1954,1.5799,1.9574,1.2459
5.052,1.9092,2.5261,2.1369,1.2763,0.3285,0.0719,0.7457,1.5239
5.056,1.4650,1.4893,0.8187,2.1829,-1.2330,-1.4283,-2.3283,-1.5367
5.060,1.1156,1.4949,0.4220,0.5808,-3.2604,-2.8411,-3.1174,-2.1362
5.064,0.2721,0.2132,-1.2515,-1.8054,-5.1469,-4.6242,-3.8179,-4.0175
5.068,-1.5969,-2.1303,-2.4112,-2.1498,-7.3390,-6.4497,-5.1923,-4.6452
5.072,-2.7692,-3.7574,-2.3138,-2.0542,-6.8963,-8.5049,-6.5300,-6.4036
5.076,-2.8013,-3.6057,-4.5320,-3.8413,-9.3973,-8.2637,-7.6692,-7.1728
5.080,-6.0406,-3.8018,-5.1578,-5.0787,-8.5370,-8.7989,-7.5835,-6.9991
5.084,-5.8249,-5.2860,-4.5448,-4.7594,-8.4154,-8.8125,-5.7022,-6.7197
5.088,-5.1758,-6.0675,-5.9059,-5.7643,-7.0377,-8.3508,-7.2170,-7.2533
5.092,-5.5857,-3.9884,-6.2810,-6.2406,-5.0892,-6.1414,-5.4769,-5.9306
5.096,-4.6660,-5.7311,-5.5163,-6.0974,-5.7171,-4.0351,-3.4954,-2.2948
5.100,-4.5919,-5.7225,-3.9575,-6.3582,-3.4213,-3.7415,-2.4141,-0.3101
5.104,-5.9061,-4.6602,-5.6729,-3.8953,-1.6536,-0.9936,-1.3347,-0.9508
5.108,-4.0360,-6.9407,-5.2030,-5.6891,-0.2376,-0.8609,1.2358,0.9399
5.112,-4.2065,-3.8472,-4.8621,-5.0056,2.0206,1.4376,1.4175,2.3008
5.116,-4.8413,-4.0624,-6.2813,-6.2526,0.5334,1.6260,0.6694,3.4314
5.120,-4.2108,-4.7549,-6.1641,-6.1905,2.3654,2.9946,2.6972,2.8320
5.124,-4.8791,-7.4548,-6.6765,-6.4594,-0.2904,2.0001,3.0594,2.8710
5.128,-6.1937,-4.6370,-6.4085,-6.1908,1.6118,1.4162,1.9791,2.8001
5.132,-6.1787,-6.0342,-5.9551,-6.3242,0.4791,0.7126,1.0944,0.7435
5.136,-5.3350,-6.3873,-6.9379,-5.6706,-0.8784,-0.1592,1.1966,0.9365
5.140,-5.9551,-6.1219,-6.3284,-6.5623,-1.7307,-2.5990,1.1377,0.7377
5.144,-3.7181,-5.5786,-6.1488,-6.5397,-3.3853,-1.7634,-1.1024,-0.5863
5.148,-4.9772,-6.1596,-5.1020,-6.0168,-1.7221,-1.6188,-1.8584,-1.1150
5.152,-4.7124,-6.3312,-5.1730,-4.6697,-2.6973,-2.2679,-2.3584,-1.8294
5.156,-4.5336,-4.3759,-4.4695,-6.1014,-3.1777,-1.8629,-2.2278,-3.1886
5.160,-4.6090,-3.3999,-4.6466,-3.8303,-5.0045,-4.4935,-4.9007,-4.6275
5.164,-3.4166,-3.6449,-5.0040,-4.5526,-6.3042,-6.1574,-4.3951,-4.3093
5.168,-4.4287,-5.3728,-4.3813,-4.7419,-7.3303,-6.5138,-5.0960,-5.1290
5.172,-2.7716,-4.2313,-3.5839,-3.0906,-7.3978,-8.5490,-6.4681,-5.2686
5.176,-2.2522,-1.7263,-3.4281,-2.5774,-7.8201,-6.5478,-5.9621,-6.4704
5.180,-1.5959,-2.2107,-2.8844,-4.9157,-8.5630,-7.1170,-5.9858,-5.3775
5.184,-2.1346,-1.5805,-2.2701,-2.4417,-6.0461,-8.2450,-4.5467,-4.4644
5.188,-1.1624,-1.7407,-1.6586,-0.8398,-6.0645,-5.3421,-3.1458,-3.3911
5.192,-0.3343,1.5183,0.1457,1.9900,-2.6415,-3.0863,-2.2609,-0.2266
5.196,1.7565,0.0684,1.9253,1.5804,-1.6903,0.6101,-0.7862,-1.1813
5.200,2.4790,2.8975,2.9819,0.9547,0.1778,-0.1015,-0.1865,2.9460
5.204,1.2844,3.8346,3.3803,3.5647,4.2263,3.8420,3.7176,3.7764
5.208,4.1094,3.5896,3.1532,3.7711,4.9323,5.4761,5.4477,5.1631
5.212,5.6890,3.5645,3.4245,4.4466,6.2301,5.3618,7.0258,8.1988
5.216,5.3961,4.3323,3.8613,4.3245,6.2645,8.8806,7.8798,5.5234
5.220,5.6724,5.1150,3.5488,4.9952,6.8598,6.5644,6.9420,7.5793
5.224,4.2093,3.1454,4.4189,4.8420,7.3313,6.6647,8.3940,6.9757
5.228,2.4078,3.1404,2.1085,3.3034,4.7343,5.5946,7.6981,7.1027
5.232,1.4874,2.1996,1.0902,1.1321,2.9324,3.4320,5.9116,6.0633
5.236,0.7887,0.4840,1.3170,0.4940,2.1047,1.5054,5.4943,5.1859
5.240,1.1108,0.2430,0.5255,0.1753,2.5635,2.1790,4.2298,3.2828
5.244,-0.6402,-1.3073,-0.6818,0.2774,0.2854,0.6710,0.8182,2.6727
5.248,-0.9440,-1.4976,-3.6820,-1.3587,0.9305,-0.2659,0.4535,2.2782
5.252,-2.9117,-2.8284,-4.1320,-1.9369,-2.1657,-2.4350,-1.5807,-0.8092
5.256,-1.8877,-3.9540,-1.8484,-3.7252,-2.6314,-2.4921,-3.7457,-1.0650
5.260,-3.5670,-2.8487,-4.1169,-3.7684,-5.0469,-3.8052,-4.4496,-4.1472
5.264,-5.1265,-6.4366,-6.8657,-6.5044,-5.4225,-5.6942,-4.7613,-5.3444
5.268,-7.0595,-5.6196,-6.8048,-5.7822,-7.3224,-7.0899,-6.7650,-6.0295
5.272,-7.6250,-8.0060,-6.4507,-7.8717,-9.4128,-8.3069,-9.6611,-8.0952
5.276,-8.3231,-7.8257,-9.7097,-7.7723,-10.2686,-8.8693,-9.1883,-7.4258
5.280,-8.4372,-8.8237,-10.9041,-9.8350,-10.0105,-9.6498,-8.4341,-9.1257
5.284,-9.0678,-9.3218,-8.8326,-9.6216,-9.1533,-9.4690,-7.8458,-8.1453
5.288,-10.2862,-9.4099,-10.9159,-8.5487,-7.5279,-8.4699,-8.2242,-7.0677
5.292,-8.0785,-9.9772,-8.7307,-8.1637,-7.8796,-6.3037,-6.5795,-5.5985
5.296,-8.8735,-6.9615,-8.0166,-5.6728,-4.9947,-5.0501,-2.3186,-3.1778
5.300,-6.4108,-7.0989,-5.4782,-7.5111,-2.0378,-2.1540,-2.2550,-0.1947
5.304,-5.5919,-5.9799,-5.5320,-4.4083,0.1585,-0.9215,-0.8860,0.0862
5.308,-4.3964,-4.4052,-3.9114,-3.2007,2.4101,0.4368,2.2929,2.6001
5.312,-3.2160,-2.2508,-4.5629,-3.0163,2.3709,3.5995,4.0990,4.0537
5.316,-3.1137,-2.9306,-3.6535,-3.1462,2.5063,2.7939,2.9977,3.7704
5.320,-3.0835,-2.4108,-1.2128,-1.6799,3.7843,4.9343,4.9004,6.1722
5.324,-2.4638,-2.1549,-2.3084,-1.1132,3.8363,5.4234,4.0501,5.8313
5.328,-1.4687,-2.1134,-2.1180,0.7173,4.7839,3.2479,6.8006,4.6245
5.332,0.0116,-0.8473,-0.5987,-0.0590,2.2459,2.6631,4.5161,5.6220
5.336,1.1622,-0.8287,-0.8798,-0.3472,1.3413,2.2210,6.2210,4.4711
5.340,0.3750,0.2759,-0.8789,0.6595,2.6448,3.0131,4.5772,2.9806
5.344,-0.6865,-1.4138,-0.2552,0.9232,1.8042,1.5716,3.0790,3.3078
5.348,-0.1358,-0.0121,1.7576,0.6789,1.0917,1.9989,3.1423,2.3355
5.352,1.7832,-0.0760,0.4292,2.3433,0.1645,1.4329,1.6320,2.3284
5.356,1.9501,1.2571,3.8759,1.6562,-1.4109,-0.1906,-0.3874,0.7701
5.360,1.3037,1.3220,1.0493,1.2494,-1.4903,-0.5849,-1.7022,-0.4876
5.364,2.0753,1.0042,0.2172,2.5689,-1.5156,-2.8092,-1.8346,-1.4918
5.368,1.1588,0.8578,-0.3696,2.5671,-4.6089,-4.0135,-2.4795,-1.9846
5.372,1.0376,0.2562,0.9613,2.3281,-4.8406,-2.4552,-3.4216,-1.4752
5.376,0.8785,-0.2696,0.5161,1.4296,-5.6068,-4.3378,-3.4208,-3.1565
5.380,0.3775,0.0187,0.7848,0.6858,-4.6392,-5.2593,-4.5576,-4.6238
5.384,0.1309,-0.2753,-0.1412,0.6029,-5.1122,-4.9355,-2.4924,-1.9069
5.388,-0.0624,0.7713,-0.3454,0.4988,-4.3918,-3.1065,-3.2875,-1.2451
5.392,-0.4966,0.8784,-0.4472,1.2435,-2.1624,-0.6008,-2.2164,-1.4582
5.396,1.5343,2.3049,0.3654,0.4406,-1.2185,-0.3735,0.8594,1.3152
5.400,1.8597,0.8031,1.7905,2.7322,1.1990,1.6125,1.7917,2.7559
5.404,0.4584,2.8368,2.2065,2.3426,3.8499,2.4195,4.0066,3.6859
5.408,0.4932,0.9995,1.3060,2.1748,5.1702,4.6540,4.2036,4.4154
5.412,1.6548,-0.0512,1.6465,1.9840,4.1702,4.2475,4.3897,6.0803
5.416,0.3904,0.4788,0.4673,-0.1104,4.2877,7.2940,6.7707,6.2097
5.420,-0.6659,-1.0052,-0.4429,0.2626,4.5253,4.8810,6.0074,6.0823
5.424,-0.9537,-1.6743,0.1103,-1.9391,3.8938,4.7342,5.8917,6.5642
5.428,-2.5844,-3.3085,-2.8189,-0.0594,2.6709,4.4636,4.7466,4.3303
5.432,-2.3632,-2.4857,-3.2798,-1.8876,3.0875,3.4256,3.8544,3.5491
5.436,-4.0504,-4.2128,-3.5723,-4.0293,2.6040,1.7403,2.7093,3.6114
5.440,-4.4795,-3.5675,-4.7146,-3.7929,0.3121,0.7311,2.6131,2.2417
5.444,-5.7967,-5.8400,-5.1544,-4.9762,0.8723,1.0018,1.3908,-0.1280
5.448,-6.3630,-4.3774,-6.0947,-5.7730,-1.2472,-0.7261,-1.4759,-2.0182
5.452,-4.7171,-6.7244,-7.5994,-5.0391,-1.7084,-2.0868,-2.1493,-1.3922
5.456,-7.7431,-7.2057,-7.2915,-6.5946,-3.7676,-3.3235,-3.1939,-2.4585
5.460,-7.6719,-7.1093,-6.4146,-7.0803,-4.4139,-3.6359,-3.3060,-4.5827
5.464,-7.2981,-7.9569,-7.2862,-5.5071,-5.5073,-5.5025,-4.3931,-3.4472
5.468,-6.9200,-8.4332,-7.2393,-8.4984,-5.8173,-6.6233,-4.3914,-4.9221
5.472,-9.0301,-7.3848,-6.3914,-6.9228,-9.0389,-7.7623,-7.3223,-7.3525
5.476,-7.8023,-8.6415,-7.5788,-5.2041,-9.3728,-9.3525,-5.6044,-6.6010
5.480,-7.7819,-7.4537,-5.6102,-6.9225,-8.1249,-7.6933,-6.2478,-5.6638
5.484,-8.5775,-5.8845,-6.7133,-6.3096,-8.0124,-7.2205,-6.3788,-4.3384
5.488,-5.9003,-5.6217,-5.5997,-5.8508,-5.7317,-6.6642,-3.6925,-4.5098
5.492,-4.3794,-4.4727,-4.8189,-3.9963,-4.8211,-5.2761,-4.1470,-4.1603
5.496,-3.0395,-5.2359,-3.3820,-1.5958,-2.4761,-1.0438,-0.8888,-0.9227
5.500,-2.7663,-2.9471,-1.7379,0.1435,1.3381,1.1599,0.4635,0.6087
5.504,0.0983,-1.4296,1.3163,2.7933,3.4191,1.4572,4.0673,2.4771
5.508,0.1545,-1.2981,2.2120,3.3968,4.1614,6.0224,4.1809,5.6367
5.512,2.7824,2.5353,4.2431,2.5165,7.3364,8.2537,6.5769,6.5868
5.516,4.3156,2.8218,4.5460,4.3027,6.9516,8.1934,6.8215,7.5914
5.520,2.5500,4.2722,5.4116,5.4690,7.7335,7.9473,8.2253,7.8290
5.524,3.6206,5.2547,3.3968,4.8227,8.7162,9.7180,8.9509,10.0353
5.528,3.7129,3.3082,4.4191,4.4153,8.4443,6.3593,7.7835,8.9780
5.532,4.6195,4.6952,4.7924,5.7471,5.2403,7.0773,7.6883,6.7225
5.536,4.2307,3.5106,4.6073,5.7749,5.2261,6.9090,7.8947,8.5861
5.540,4.7613,3.6696,4.9615,4.4949,5.6691,4.4863,6.7032,5.7161
5.544,4.3334,4.2167,5.6007,4.2743,3.7499,5.9213,5.7600,4.8370
5.548,3.5891,4.9768,4.7082,4.7414,3.3814,3.5735,5.0353,3.7249
5.552,3.8571,4.1984,2.3680,4.6614,2.8014,2.5370,3.2868,2.2844
5.556,3.2923,2.3152,3.9900,4.5785,2.0551,2.9015,0.9697,3.3479
5.560,1.1958,1.6244,2.5497,2.5610,-1.0748,1.2104,0.2537,-0.5643
5.564,1.1904,0.8517,0.6634,2.2582,-2.0982,-0.0727,0.4223,-1.2972
5.568,1.0046,-0.2208,-0.0918,-1.1772,-2.7736,-3.0639,-1.0255,-2.5892
5.572,-1.9803,-2.2817,0.1072,-0.5805,-4.2255,-3.5023,-4.2456,-2.9372
5.576,-2.1284,-3.7222,-1.1747,-1.9916,-6.0913,-5.5277,-4.0932,-4.9864
5.580,-4.3596,-4.4520,-2.3968,-0.8488,-6.1428,-6.0212,-5.1749,-3.1882
5.584,-4.7848,-2.8704,-2.4539,-3.9337,-4.7904,-5.7756,-4.8647,-5.0962
5.588,-4.4478,-5.0324,-3.3652,-2.8636,-5.6329,-4.3931,-3.9871,-2.7528
5.592,-5.0321,-4.4248,-3.7016,-2.4044,-2.5345,-3.6703,-2.3488,-1.5476
5.596,-4.2809,-5.2643,-4.4554,-2.3497,-2.9428,-1.2346,-1.9237,-1.5723
5.600,-4.2837,-5.0125,-2.3824,-2.5629,-0.8245,0.6734,1.9504,1.1837
5.604,-3.7464,-4.9616,-2.9070,-3.2093,1.8153,2.6373,2.2696,0.9942
5.608,-4.7964,-2.0421,-1.1989,-2.0417,2.5287,2.8732,3.5884,3.8071
5.612,-2.7097,-3.9194,-3.2556,-1.6856,4.5333,4.7173,3.2084,4.8194
5.616,-3.6436,-3.4277,-2.8311,-1.9256,4.1244,3.8074,4.9172,5.6058
5.620,-5.5883,-4.9101,-3.8839,-4.0204,5.1645,4.7788,4.4497,5.4754
5.624,-5.2545,-4.8194,-4.6077,-2.4090,4.8927,5.1839,4.9702,5.1083
5.628,-4.6350,-3.7973,-3.5101,-3.0870,4.3247,5.0195,3.2278,4.6269
5.632,-6.7340,-3.9653,-4.5678,-3.7199,3.9570,3.4403,4.8519,3.4426
5.636,-6.1300,-5.4556,-3.7295,-5.3810,1.6397,1.6844,3.9609,2.5059
5.640,-4.0534,-6.1273,-3.5391,-2.3395,1.2326,2.2907,2.5700,1.9354
5.644,-4.1687,-4.6913,-3.9474,-2.3253,-0.2029,0.2401,2.7499,2.2429
5.648,-3.7944,-4.3516,-2.9809,-2.0537,0.0399,1.7739,1.7878,0.6968
5.652,-3.3610,-3.3042,-2.2948,-2.6833,-0.3073,-0.7137,-0.2138,1.6186
5.656,-3.3303,-2.5683,-3.0831,-1.1993,0.2590,-0.4317,-0.7960,-0.1496
5.660,-3.0248,-3.6778,-0.3827,-1.3970,-2.3198,-1.7692,-1.5261,-1.5410
5.664,-3.0873,-3.0471,-0.8625,-1.6796,-2.2275,-1.4970,-3.9468,-3.2862
5.668,-2.9176,-1.9076,-1.1000,0.1863,-3.1223,-2.4282,-3.2864,-1.7625
5.672,-2.5827,-3.0586,-1.0937,-1.1546,-3.6620,-4.5915,-3.4271,-2.9583
5.676,-1.6484,-1.9573,-0.1050,1.0384,-6.6341,-4.2753,-4.1042,-2.9669
5.680,-0.8123,-1.7437,0.4624,-0.4993,-4.2749,-3.4411,-3.2406,-2.4413
5.684,-0.4237,-2.2341,-0.4246,1.1459,-3.7388,-1.7765,-2.5922,-1.6916
5.688,1.0226,0.3543,0.8226,2.5368,-0.9921,-1.1837,-1.5983,-1.2832
5.692,1.4805,1.1867,2.8974,4.3345,-0.4115,0.0315,2.0201,0.7137
5.696,3.2744,3.2836,3.6944,4.0380,2.1668,0.8339,3.6935,3.5306
5.700,4.5425,3.7254,4.7265,4.4066,2.3934,3.4051,5.2306,6.0161
5.704,3.7563,4.7531,6.3460,6.4688,6.0593,6.3427,6.8356,5.7673
5.708,5.7195,6.3017,6.5793,6.6945,8.0635,8.8821,6.6540,8.9243
5.712,5.1999,7.1765,7.2612,8.1797,8.4958,8.7367,8.3026,9.3970
5.716,5.3504,6.5165,6.8291,7.4046,9.0040,9.4977,8.9980,10.1719
5.720,6.3442,5.2817,6.1177,7.0319,10.6134,8.5542,10.9074,8.6783
5.724,4.7019,5.4233,6.8676,5.9170,7.6322,9.5301,9.4107,8.8497
5.728,5.2089,4.2628,5.5817,6.0611,8.5219,8.1035,9.6754,7.2192
5.732,3.6210,4.5028,3.3931,4.4105,6.7069,7.8165,7.6779,8.8224
5.736,3.4083,1.9589,4.1510,4.8594,5.9999,5.9200,7.1704,6.3501
5.740,3.3012,3.6094,2.5771,3.2260,4.5738,4.5044,5.9219,4.5386
5.744,1.8781,0.4735,3.0153,2.3114,1.9238,4.5120,3.5966,4.5548
5.748,-0.6170,0.3611,1.7238,1.6765,1.6699,1.8905,3.2545,3.6200
5.752,-1.3096,-0.5732,0.3476,0.0958,1.6152,0.6736,2.2285,-0.2786
5.756,-3.0694,-1.2060,0.0577,-1.1726,0.8549,0.9895,0.9948,-0.7176
5.760,-4.1814,-1.9892,-1.5533,-1.5116,-1.9190,0.2229,-1.6486,-2.4178
5.764,-3.3251,-3.2709,-3.5927,-2.8800,-2.8087,-2.4446,-2.4482,-2.8183
5.768,-5.5482,-5.5261,-5.5491,-5.1092,-3.3474,-2.4997,-5.0552,-3.9376
5.772,-5.7979,-7.0211,-5.4325,-4.4998,-5.8124,-4.7460,-4.6675,-4.6233
5.776,-6.4029,-6.9972,-5.7998,-6.0835,-7.0484,-4.8662,-6.2003,-3.7244
5.780,-7.5727,-8.5740,-5.2500,-6.7887,-6.7076,-7.4486,-5.2404,-6.3197
5.784,-8.4017,-7.4968,-5.7943,-7.5544,-6.4587,-6.3180,-4.2285,-5.2172
5.788,-7.8233,-7.8594,-6.9531,-6.0397,-6.0182,-5.6220,-4.1048,-3.3693
5.792,-7.4966,-5.9707,-4.5995,-5.1187,-4.9604,-4.3177,-3.2351,-2.9035
5.796,-5.9409,-5.6606,-6.3901,-3.4952,-1.6026,-1.2542,-1.0953,-1.9028
5.800,-5.5236,-3.4635,-4.8521,-2.9315,-0.2502,-0.8204,-0.0045,-0.2422
5.804,-1.8657,-3.3715,-3.7778,-1.4298,1.9432,3.1781,1.4274,3.2284
5.808,-2.8087,-3.3400,-2.2596,-0.1643,4.1317,4.6729,3.2949,3.5699
5.812,-1.6430,-2.0984,-0.4063,-1.6611,6.2420,5.3556,6.0691,5.2792
5.816,-1.7531,-1.3514,-0.9024,0.3199,6.4690,6.5432,5.6643,7.5277
5.820,-0.2137,0.3660,-1.1223,0.2523,5.5640,6.1943,4.5485,6.3636
5.824,-1.1348,-1.9747,1.2856,0.9552,6.0843,7.9361,7.0407,7.1436
5.828,-1.2929,0.3016,0.9501,0.9866,5.9361,6.3336,7.2593,6.9133
5.832,0.0886,1.3311,0.7880,0.4266,4.3642,6.6229,6.2658,7.3271
5.836,1.0848,0.4486,1.7752,3.5812,4.7252,4.9522,5.8779,6.2771
5.840,2.6073,2.5515,2.7125,4.0895,5.1593,5.6349,5.9491,5.0210
5.844,1.5943,3.0887,3.7018,5.3254,4.3442,3.9326,5.3033,4.7836
5.848,1.6521,3.0801,3.8920,3.5262,3.3912,4.1680,3.7474,3.7776
5.852,2.5223,2.7048,4.3978,5.1282,2.6632,4.0806,4.0456,3.4327
5.856,3.0380,5.1349,4.2276,5.7315,5.5487,2.9090,2.6001,2.1279
5.860,3.3965,3.1797,4.8291,3.8977,4.2627,2.2658,0.9293,3.4174
5.864,2.3475,3.0244,5.7779,4.9842,0.4913,2.7296,1.1863,-0.7381
5.868,2.8029,2.6620,5.0984,5.4972,1.9269,-0.7060,1.1251,0.9469
5.872,3.9309,2.7212,4.2098,4.0608,-1.6491,-1.3001,-1.0708,-0.9061
5.876,3.8831,2.7427,4.5590,5.1087,-1.3001,-2.6003,-0.6827,-1.5476
5.880,1.4723,1.7236,3.9268,4.8067,-1.5435,-2.3054,-1.8275,-2.5394
5.884,1.1539,2.8346,3.8250,3.6183,-2.1602,0.1214,0.1460,-0.4475
5.888,0.4935,4.1529,3.3289,4.8413,0.7613,0.5688,0.2153,0.2516
5.892,1.7090,2.7157,5.0156,4.8502,1.7120,-0.1420,3.5166,-0.4671
5.896,1.6848,2.4848,3.7251,2.8075,2.9838,3.5985,2.3388,2.3498
5.900,2.6004,4.5092,3.8156,5.0133,4.3555,5.0739,4.8463,5.0006
5.904,3.4807,3.8511,5.0717,5.6183,6.5216,5.3821,4.3073,3.9149
5.908,3.1007,1.0701,6.4173,5.7285,7.3470,6.8112,6.6634,5.9575
5.912,3.8075,2.7187,4.0850,4.0880,7.4484,9.2571,7.3258,7.1183
5.916,2.9884,1.7937,3.2799,3.3108,9.5497,8.4184,8.5557,7.8104
5.920,1.9150,1.0469,3.4472,3.9165,7.6578,9.2079,5.7165,8.4245
5.924,0.3195,-0.0012,2.0136,2.2589,7.6591,6.9713,6.9892,7.2635
5.928,-0.3456,-0.0067,-0.4000,0.2185,5.5564,5.7105,6.6264,5.9670
5.932,-1.4125,-1.8384,0.0288,0.6833,4.3280,4.0393,5.5103,6.0147
5.936,-3.6544,-0.7914,-1.1758,0.2164,3.0740,4.7815,3.3350,6.3685
5.940,-2.0256,-2.2570,-0.6490,-2.3274,3.9750,2.8411,3.3460,2.0525
5.944,-3.4893,-3.6252,-1.5760,-1.9660,2.3908,2.0272,1.6245,1.8067
5.948,-3.1878,-4.2507,-2.5688,-2.7504,0.9421,2.0600,1.3636,1.6594
5.952,-4.9241,-5.2119,-3.0169,-3.0730,-0.3540,0.0734,0.0766,-0.2764
5.956,-5.9703,-3.7363,-3.0477,-3.6576,-0.1215,0.6245,-2.3370,-0.8290
5.960,-5.2302,-6.0198,-3.0621,-4.2584,-1.0223,-2.1563,-1.5784,-2.2775
5.964,-5.2324,-5.6799,-3.6704,-4.6750,-1.6686,-1.5846,-3.0169,-4.0254
5.968,-7.3088,-5.4662,-2.8954,-3.4985,-3.0138,-3.3551,-3.7601,-4.1835
5.972,-5.4478,-6.7976,-4.3256,-3.8493,-4.8782,-3.2919,-3.2330,-3.6347
5.976,-5.3548,-5.5421,-3.7323,-3.8495,-5.3496,-5.3448,-5.7044,-5.2532
5.980,-6.5432,-4.3708,-4.1966,-4.3523,-5.4588,-3.3936,-4.1558,-3.7283
5.984,-4.8813,-4.4356,-3.6590,-1.6294,-4.7625,-3.5731,-3.8856,-4.0933
5.988,-3.5441,-3.5117,-1.5709,-2.4963,-3.9745,-2.8033,-3.2369,-2.7044
5.992,-3.3916,-2.2277,-1.7924,-0.9270,-1.0036,-0.9295,-1.4728,-1.0886
5.996,-1.4372,-0.8140,1.3526,0.7144,0.7864,2.7739,1.4606,0.3366
6.000,0.5413,0.0532,2.3826,2.2741,3.6171,5.0088,4.5520,3.4780
6.004,1.0300,2.7038,4.0689,3.9854,5.6227,6.1847,5.0505,3.8123
6.008,4.0456,2.4202,3.5221,5.7363,6.4623,7.9521,6.7277,6.7491
6.012,4.7695,4.5854,7.4078,5.1486,9.4271,9.6157,6.8939,7.8294
6.016,5.5132,6.3243,6.3961,7.4483,10.7584,8.6162,9.4377,8.5204
6.020,6.6712,6.6498,6.5516,8.0572,8.8115,11.8394,10.2989,10.5382
6.024,4.9281,7.2892,6.9394,8.5809,10.5322,8.9671,9.5579,9.6442
6.028,6.8471,6.1833,8.2487,6.8834,9.8131,8.9212,9.7761,11.2231
6.032,6.3425,6.7335,7.4062,7.8071,8.3616,9.3732,9.2524,8.8082
6.036,6.8838,7.8688,7.4285,8.1586,7.4283,8.2479,7.9735,10.5615
6.040,7.4552,6.8798,7.1814,7.5576,6.9051,7.7251,9.4020,7.6217
6.044,5.9760,8.0611,6.6048,9.6620,7.1483,6.7344,5.6923,6.3266
6.048,5.8921,6.4726,5.8516,7.8045,5.2020,5.5202,6.7797,4.6814
6.052,6.3565,6.5093,7.4210,7.5146,3.7558,4.2812,6.5200,4.7399
6.056,5.5186,6.1957,5.9436,8.5760,5.5536,5.3991,3.1389,4.2538
6.060,3.1546,4.8354,5.5166,6.9904,3.4435,3.0228,2.7581,2.0622
6.064,2.9313,3.4491,4.4870,4.4432,0.5324,0.9378,-0.1413,0.7816
6.068,1.6159,2.3617,3.8949,3.5955,-1.0264,1.2910,-0.6975,-0.3876
6.072,1.5449,0.3890,3.3785,3.0524,-1.7242,-1.8114,-1.4713,-2.0189
6.076,-1.1838,0.8583,2.4520,2.2508,-1.9972,-2.2538,-0.3967,-2.8951
6.080,-3.1351,0.0257,0.6540,2.7066,-3.6337,-3.9024,-3.8777,-3.3688
6.084,-2.2232,-1.9281,0.1536,0.1800,-1.6912,-2.5231,-2.5825,-2.8827
6.088,-1.2502,-1.9681,0.1595,-1.0626,-2.6422,-3.2033,-0.3948,-2.1622
6.092,-2.5490,-2.1103,-1.8154,0.8971,-0.7413,-0.7155,-0.8885,-2.3203
6.096,-2.4512,-0.2018,-2.5883,-0.2060,0.5002,1.4459,-1.3944,-0.2360
6.100,-2.3252,-0.5872,-0.7100,-0.7541,3.8343,2.5654,1.5765,1.1467
6.104,-2.6818,-1.5835,0.0502,1.0695,4.2246,3.6099,3.4415,3.6073
6.108,-1.5755,-0.8941,-0.6132,1.6381,5.6313,5.3778,5.3719,5.2090
6.112,-1.3513,-0.9205,-0.7511,0.6143,5.9725,5.0239,5.6428,5.0447
6.116,-1.7283,-0.6492,-1.0005,0.7801,6.9575,4.5408,6.3003,5.4440
6.120,-1.5834,-1.6834,0.6511,-0.2995,6.6589,8.2915,6.1097,6.3285
6.124,-3.1949,-1.3019,-2.3073,-0.4220,7.6588,5.9631,6.5668,5.4448
6.128,-1.1074,-3.0446,-0.4793,0.0920,3.8600,5.0868,6.1201,5.3573
6.132,-1.9318,-1.6960,-0.7305,-0.9177,5.6508,3.3576,4.1177,5.9393
6.136,-2.8364,-2.2077,-2.2449,-0.2476,3.8732,4.0734,4.7907,5.1935
6.140,-3.2137,-1.6361,-1.1377,0.9416,3.3831,3.3997,5.4091,4.6293
6.144,-4.2021,-0.8711,0.0365,0.3843,2.9353,2.5539,2.4995,1.8171
6.148,-1.9356,-1.6476,0.0792,-0.1085,2.1007,2.3357,2.3373,1.7403
6.152,-2.5156,-2.1680,2.0622,-0.5347,3.0985,1.6788,-0.1149,0.3310
6.156,-1.2763,-0.5288,0.1049,1.3428,2.4073,1.4356,0.3771,1.5368
6.160,0.4707,-1.2404,-0.1335,1.3295,2.2057,1.9914,0.9024,-0.2866
6.164,-1.5275,-0.6094,0.9262,0.9643,1.5972,-0.0272,-0.5755,-1.1778
6.168,0.1271,2.0959,1.6521,1.0428,-0.8719,0.3900,-1.4914,-1.4382
6.172,0.6457,0.3794,1.0556,1.8797,-0.3962,-0.6390,-0.9504,-2.1801
6.176,0.0738,0.6964,1.9168,3.7632,-1.5529,-2.4660,-2.1082,-2.0597
6.180,0.8383,0.7638,3.8069,2.6457,-3.6512,-1.2800,-0.6136,-1.6511
6.184,2.2464,2.6616,4.2375,4.0371,-0.7537,-1.8149,-0.4142,-1.2287
6.188,3.8547,4.0336,6.0737,5.1685,-0.1789,-0.4993,-0.4647,-0.7142
6.192,4.7258,3.9841,6.1529,5.8560,1.5054,2.7835,2.4170,3.2351
6.196,3.7467,5.4897,6.4629,6.7320,3.0933,4.6828,3.2669,1.7850
6.200,7.2368,7.0642,7.3500,7.4048,7.1008,6.1378,5.7030,5.7641
6.204,6.5188,7.7575,8.5780,8.4842,9.8766,8.2589,7.7981,6.1112
6.208,7.3571,7.4498,9.3028,10.5628,9.0060,10.0520,9.2316,6.8348
6.212,9.0655,7.9911,9.4468,10.3806,10.0909,9.1532,8.1973,9.4430
6.216,8.1306,8.9636,9.9718,10.5632,10.3152,11.7315,8.7217,8.5293
6.220,8.8439,8.2191,9.2030,9.4414,11.0815,10.7012,10.7908,10.0037
6.224,7.3319,8.8071,8.0270,8.7215,10.5664,11.0446,9.3659,8.7141
6.228,4.8224,7.4373,8.2781,7.5283,9.0769,9.4996,10.0396,8.0373
6.232,5.7499,6.0846,7.3517,8.3578,8.0941,7.4757,8.9937,7.5830
6.236,4.1419,5.1110,6.2357,6.7928,5.9870,7.0816,6.9009,7.4038
6.240,4.7413,4.0430,5.6958,6.4752,5.9802,6.6471,6.8579,6.0263
6.244,3.1181,3.7126,6.4420,5.9974,5.0002,5.9948,5.1785,5.3062
6.248,2.6618,3.2091,2.4791,3.2338,5.2154,4.0689,4.0639,3.6042
6.252,1.6106,2.8815,4.3469,2.8292,3.3604,3.4638,2.6978,1.1028
6.256,0.0349,-0.8364,2.6075,2.7452,3.2536,2.3190,0.9183,-0.3765
6.260,-1.3023,-0.6094,-0.8677,1.0418,1.2161,0.8260,-0.9084,-1.7141
6.264,-2.6838,-0.7491,-0.0022,1.2300,-0.2210,-0.6473,-2.3745,-1.6229
6.268,-3.0299,-2.9877,-0.7388,-0.4894,-1.1958,-2.9707,-0.4878,-3.4129
6.272,-4.9844,-3.6156,-2.4016,-3.3758,-2.7853,-3.8560,-4.0717,-3.6614
6.276,-4.1171,-4.9896,-2.7943,-3.2154,-4.3979,-3.0615,-5.2932,-4.7573
6.280,-5.5213,-5.2255,-3.8901,-4.4509,-3.6718,-5.3933,-5.2419,-4.5287
6.284,-4.5451,-4.9950,-3.6693,-4.1739,-2.7768,-4.1907,-5.5332,-4.1777
6.288,-4.2630,-4.2429,-4.4156,-2.6835,-3.2008,-4.8941,-4.1031,-2.3607
6.292,-5.3119,-5.1147,-2.6621,-2.8046,-0.5594,-0.5247,-2.5378,-3.7095
6.296,-2.8809,-3.6794,-2.1077,-1.8994,0.4053,0.0580,1.2342,-0.7390
6.300,-2.8876,-3.7497,0.1861,-1.2333,2.1031,2.0379,2.8044,1.7724
6.304,-1.3673,0.3960,-0.6759,0.0002,5.9320,2.5133,3.5650,1.7323
6.308,-0.3970,-0.4543,1.3801,1.4371,6.6552,5.0832,3.5066,5.3883
6.312,0.3912,0.2083,1.9698,1.6526,6.2211,6.6709,6.0134,5.8250
6.316,2.0491,1.2443,1.6708,3.5580,7.2949,7.9984,7.5047,7.0375
6.320,2.0671,0.3601,3.9805,1.1606,7.1772,7.9717,8.1127,6.6680
6.324,1.5754,3.4330,3.3550,3.1195,6.9064,7.5226,6.8367,5.4099
6.328,2.7896,2.7598,4.4613,5.1086,7.5108,7.0443,7.2289,6.9343
6.332,2.0630,4.3457,4.2230,3.7914,5.9685,7.1507,7.8263,7.3215
6.336,2.9403,3.7885,5.5894,3.9997,6.2282,6.0451,7.7465,5.7906
6.340,4.0852,3.1604,4.5183,5.9077,5.9090,7.0484,6.1175,5.4138
6.344,5.6869,4.6262,6.4482,4.5131,4.8881,5.5930,5.4651,5.4253
6.348,5.1624,6.1321,7.0476,6.3380,4.8917,3.7753,4.5350,6.5896
6.352,7.8035,5.9484,6.3436,6.5620,5.4204,5.3692,4.7726,4.4999
6.356,6.0999,6.2195,6.4752,8.6066,5.2204,4.7260,2.8242,3.2326
6.360,5.5693,5.9544,6.4933,7.7788,4.2537,3.0977,2.8755,1.0282
6.364,5.9790,4.5564,8.0745,7.1393,3.0413,2.3139,3.2863,0.3961
6.368,4.4919,6.9432,6.6102,6.0282,3.4376,2.9826,0.6680,1.6531
6.372,5.6999,5.7982,6.6539,8.2579,0.7372,0.5926,0.0952,-0.4476
6.376,4.6552,6.4154,5.6728,6.0586,-1.1834,-0.2435,-0.3939,-0.5404
6.380,4.0835,5.3929,6.5193,5.9406,-0.3735,-0.7735,1.0672,-0.5729
6.384,5.3948,5.0392,5.3289,6.2013,0.2293,0.3557,1.0651,-0.9505
6.388,4.4182,4.6325,6.7938,6.5996,1.2856,0.7536,0.2932,-0.1862
6.392,4.9436,5.3374,5.8732,7.2858,2.0995,1.6631,2.1996,2.1376
6.396,5.4723,4.3987,8.7116,6.8720,4.1460,3.8314,4.3699,3.6032
6.400,6.8437,6.9446,5.9766,7.7200,6.1047,4.8889,4.7794,4.4921
6.404,7.0156,7.2179,6.7659,9.3915,8.9935,7.4293,5.4366,5.6392
6.408,5.0780,6.5014,7.3695,6.9117,7.7934,8.1656,8.2525,6.2161
6.412,6.0025,5.2592,5.8867,6.3612,10.4058,8.8426,6.6868,6.5894
6.416,2.6478,4.1847,5.9932,5.8157,9.0654,9.0907,7.7247,7.1451
6.420,4.7913,4.7570,6.9772,5.5639,8.4034,8.1114,8.8495,8.3306
6.424,1.3700,3.3486,3.6368,5.6459,6.1268,7.3574,6.8261,8.0185
6.428,1.8870,2.7188,3.7154,3.3932,5.1055,5.5554,6.5842,6.1885
6.432,1.1798,1.8870,2.0431,0.9347,5.9625,5.2844,5.8888,6.2280
6.436,-0.4557,0.7907,1.4179,2.2884,5.8413,4.4654,3.6808,3.8621
6.440,-0.7881,0.5911,0.5435,1.1126,4.3408,4.4198,3.2327,3.7559
6.444,-0.6590,-2.2627,1.3411,0.8439,2.4480,3.2076,2.5618,1.9898
6.448,-3.2613,-0.9786,-0.8062,-0.9611,2.5896,2.0568,1.8477,1.0032
6.452,-1.5695,-0.8136,0.0585,-1.4979,1.9395,1.2329,0.6851,-0.2598
6.456,-2.2269,-3.1862,-1.1746,-0.5331,2.6342,0.1620,0.1503,-2.6884
6.460,-1.8117,-3.4055,-1.8202,-1.4720,1.4119,0.5840,-2.5565,-1.2768
6.464,-2.0090,-3.4024,-0.9053,-3.3908,-0.1105,-2.4988,-3.6959,-3.4019
6.468,-3.3341,-4.3844,-1.1552,-0.9762,-2.7163,-2.3825,-3.0108,-3.2376
6.472,-3.9977,-2.7134,-2.0478,-3.0246,-2.9945,-4.0210,-4.1165,-4.2354
6.476,-3.1214,-4.0026,-2.0559,-3.4263,-3.1600,-3.7034,-4.2073,-4.6089
6.480,-1.6744,-2.6712,-2.7968,-2.0953,-4.0188,-4.3254,-4.7641,-3.2167
6.484,-0.7740,-1.4564,-2.2030,0.2314,-3.2112,-3.5912,-3.4118,-3.4451
6.488,-0.6606,-1.2233,-0.4443,-2.4926,-0.5224,-2.4240,-2.8081,-3.2974
6.492,0.3852,-0.6154,1.5542,-0.3157,0.2783,1.2960,-0.5527,-0.9508
6.496,0.9565,1.0004,2.5569,3.3350,3.2960,1.3016,0.8588,-0.0818
6.500,3.1154,2.8624,4.5218,3.6227,4.8951,4.0689,2.7541,2.6245
6.504,4.9062,3.7887,6.5378,5.3368,6.4372,6.0285,5.8865,4.5777
6.508,4.9015,5.5295,7.4524,6.8402,8.6651,7.9741,5.7952,6.0021
6.512,8.0908,5.7405,10.2810,9.4062,9.1454,9.4480,7.2894,8.8803
6.516,7.5401,8.4719,10.6022,7.8239,9.9794,10.2487,8.5529,9.1285
6.520,8.3338,8.3003,9.7029,8.8589,9.3892,11.6048,9.0401,7.1139
6.524,8.7839,8.8524,9.4238,10.4498,9.0102,9.7841,9.6400,9.8773
6.528,9.4109,9.4017,10.0668,9.1562,9.3345,9.6113,8.8184,9.7343
6.532,9.2273,8.9387,9.9510,10.2511,9.5434,9.9409,9.2661,7.2918
6.536,8.0921,8.6383,10.0281,9.2080,8.3420,7.8273,8.6046,7.8578
6.540,7.9607,8.8139,11.0104,9.0868,9.4030,9.0295,6.4467,7.5805
6.544,8.8791,7.9538,8.4299,9.8105,6.9948,6.7221,6.9946,6.7861
6.548,8.5893,9.9124,7.6840,10.6410,7.4665,6.6138,4.2166,6.5929
6.552,8.9620,7.6986,8.7402,9.4049,5.2690,5.7361,4.4792,2.9688
6.556,6.4550,7.8409,7.0854,8.4776,5.7515,6.2250,3.0701,2.1668
6.560,6.2956,8.0135,7.8771,8.1017,4.3295,2.0211,1.6219,1.7830
6.564,5.3714,6.9419,6.1796,5.8730,2.4797,2.6179,1.8312,0.7381
6.568,4.2625,5.6349,5.5714,7.0861,2.0553,1.3076,-1.3741,-0.5156
6.572,4.0386,4.8155,3.4098,3.2438,1.1093,-0.6211,-3.4051,-1.3095
6.576,1.7091,3.2604,3.5474,3.6015,0.9339,-0.7074,-4.1350,-1.5592
6.580,3.0350,2.4155,3.0666,4.3479,-1.5482,-1.3762,-2.6406,-2.4401
6.584,2.9432,1.3476,2.1683,2.7347,-3.1718,-2.0553,-2.5544,-1.9959
6.588,0.8671,0.8654,0.0040,1.1824,-0.8187,-1.6126,-1.2016,-1.0300
6.592,-1.1561,0.1411,1.3174,0.2348,1.1420,-0.8514,-0.2391,-0.2213
6.596,0.6232,0.9058,1.8680,1.6566,0.4913,1.9354,1.1077,-0.0700
6.600,-0.3414,1.5020,3.1917,2.5309,4.1452,2.7318,3.5876,2.4212
6.604,0.0036,1.3056,2.0440,2.1941,4.4662,4.0995,3.7616,1.7505
6.608,0.6615,1.4338,3.3334,3.3073,6.2488,4.2903,3.3034,3.5523
6.612,1.5839,0.3187,1.8724,0.9876,6.6005,6.4332,4.3639,5.3482
6.616,-0.6027,0.9040,3.0416,1.0610,6.3196,6.3701,5.2901,3.5416
6.620,1.0389,1.8526,0.4145,1.1296,6.3039,8.0330,5.6675,5.3925
6.624,0.0124,-0.0058,2.5314,0.2847,6.3907,6.7097,5.5105,5.0167
6.628,-0.4917,-0.5026,-0.4912,0.7343,6.3093,3.8201,4.8019,4.0984
6.632,-1.4033,0.4767,0.4018,-0.5081,5.4178,5.6293,3.8879,3.4785
6.636,-0.2742,0.4891,0.8076,0.1555,4.0142,3.8999,3.6459,3.8942
6.640,0.0138,-1.2949,-0.5996,0.4889,4.5738,3.4904,2.8327,3.4255
6.644,1.9531,0.6157,1.0700,1.8932,3.1705,2.7983,2.1538,2.2857
6.648,0.0194,1.4622,3.2714,0.2959,2.2751,4.9374,2.7954,1.3937
6.652,1.9636,1.4482,2.0035,1.6757,2.0791,2.6523,0.4540,2.2993
6.656,1.4005,2.2548,1.8827,3.0040,1.6743,2.3140,-0.9159,1.0410
6.660,0.8319,2.2519,2.2768,2.7087,1.1550,1.7195,-1.4313,0.1403
6.664,2.9221,3.1932,3.2853,2.5141,1.4597,-0.2357,0.5002,0.1482
6.668,3.3552,2.1185,4.2749,4.0710,0.4807,-0.3045,-0.3940,-1.6703
6.672,2.4449,2.9035,3.4179,3.2045,-0.5367,-0.5467,-1.8262,-1.1406
6.676,2.8151,2.4258,5.2017,4.7063,-0.4147,-1.7162,-2.6525,-3.9233
6.680,3.2919,4.6705,4.2902,4.2566,0.4597,-1.1316,-1.6396,-1.5508
6.684,4.8305,5.9560,5.9780,5.1013,-0.1830,0.0556,-0.8900,-1.7366
6.688,5.8768,4.7589,6.3288,7.6036,1.0095,0.3969,1.7820,-0.0565
6.692,8.4985,6.2730,8.5002,7.5865,1.3067,1.6902,2.1259,1.6814
6.696,7.7468,7.9744,7.2115,8.2617,4.2358,2.8735,2.5303,3.1327
6.700,8.7957,9.2728,9.3514,9.1466,5.7957,6.7962,5.0741,3.6840
6.704,9.7261,9.7664,10.5228,10.8236,8.9054,8.0985,7.0572,5.6157
6.708,11.2136,10.8705,11.0923,10.7466,10.9421,9.0208,7.8969,7.9207
6.712,10.6626,11.9533,12.5108,10.4539,11.7643,10.6167,8.5360,8.4156
6.716,10.4263,10.4768,11.6656,10.7523,11.4563,12.3892,8.7417,8.7496
6.720,10.9644,10.3107,10.4544,10.7939,10.0467,10.3431,9.9820,8.0877
6.724,9.1272,10.1054,11.8510,9.1958,9.3130,9.8905,10.2564,8.8375
6.728,8.4971,8.7198,9.2432,8.6980,10.0754,8.2787,9.3570,7.2675
6.732,6.3075,7.7331,9.5000,8.0114,8.7845,8.3446,7.8296,8.3999
6.736,8.8734,6.6115,5.5724,7.4424,8.0033,7.0459,6.6103,5.3257
6.740,4.5050,6.7699,6.7794,6.2224,7.6431,6.1593,5.7485,5.7587
6.744,5.9114,5.4640,6.3189,5.4016,6.8298,4.6477,4.2316,4.3754
6.748,4.3018,5.4988,5.3694,3.9115,3.1975,4.4349,3.7501,2.1518
6.752,3.3211,4.3826,4.8820,3.0867,5.0884,3.3413,1.9445,1.3761
6.756,1.8492,4.4573,3.8447,2.7408,2.2901,3.6190,0.6162,-0.0384
6.760,1.0531,1.9757,2.8347,1.9099,1.3535,-0.2613,-0.9906,-1.8749
6.764,0.9820,1.6784,1.9209,1.6114,-0.8083,-0.1823,-0.4203,-1.0196
6.768,-0.2470,-0.6009,1.3190,1.1785,-1.4302,-2.2403,-1.9706,-2.5533
6.772,-2.5823,-0.5907,-1.5160,-1.4490,-4.6527,-1.4017,-5.1733,-4.9153
6.776,-2.0098,-1.4786,-2.5033,-1.1148,-3.7196,-2.5876,-3.2503,-6.0621
6.780,-1.6921,-3.1419,-3.0953,-1.5146,-5.0705,-4.5205,-3.8676,-4.9843
6.784,-3.6578,-2.0488,-2.1040,-2.0334,-5.1695,-3.8093,-2.8841,-4.6136
6.788,-2.7230,-2.8065,-2.7351,-2.1898,-2.4375,-2.6955,-3.8909,-4.2686
6.792,-2.1094,-1.6172,-1.8008,-2.5837,-1.6974,-2.9618,-2.6768,-2.9411
6.796,-1.5849,-0.2447,-1.4897,-1.7003,0.4003,-1.9761,-1.6361,-0.6437
6.800,-1.9510,-0.2207,0.2195,-0.6244,1.9299,1.2533,0.9420,1.1411
6.804,0.8329,-0.1747,0.7157,1.2778,4.3366,3.6944,2.9242,1.5610
6.808,1.4681,0.7831,1.5596,3.5674,7.2266,5.6205,4.0910,2.7470
6.812,1.7736,2.9048,3.4109,2.7668,6.1907,6.5417,3.7603,3.1763
6.816,3.3588,2.5989,3.4359,3.4793,5.3606,7.8870,6.8978,5.7169
6.820,4.4286,3.3979,3.9033,3.1797,7.6093,7.6797,6.2786,4.9330
6.824,3.4667,3.5801,2.7676,3.6775,7.4797,8.2106,6.2326,5.8475
6.828,4.6783,5.6229,4.8157,4.3229,6.8432,7.5151,6.0473,4.8173
6.832,6.0440,6.0929,6.5666,3.3674,6.3964,5.6259,6.3678,6.3112
6.836,4.2129,5.0599,4.5803,5.3619,4.1733,5.8628,5.6126,5.5925
6.840,5.7234,6.1343,5.6721,4.9742,7.7987,5.4488,4.6653,4.5803
6.844,7.7055,6.4074,6.5301,6.8945,7.4796,3.9223,4.7128,2.9927
6.848,7.8259,7.6400,6.8444,6.4087,6.0719,6.0538,3.7215,2.9216
6.852,7.8209,8.4019,7.6227,6.9843,6.5055,3.6801,2.5690,1.9620
6.856,7.9219,8.9267,9.9972,6.0501,4.7865,3.1452,2.6808,3.2682
6.860,8.1205,8.9984,7.9412,9.5868,4.3056,3.2564,3.8604,1.5431
6.864,7.3472,7.5907,8.8920,10.2009,1.5798,2.2987,1.3740,1.2699
6.868,7.7425,7.7666,7.8601,7.4214,1.9207,0.5354,0.9149,-1.2664
6.872,8.5193,8.7509,8.1703,7.5189,0.6177,1.8397,-0.3543,-1.0641
6.876,6.5242,9.0108,7.8680,7.6364,0.4771,0.1648,-0.2933,-0.0945
6.880,6.0097,6.8926,5.8070,7.9757,-0.4740,-0.5720,-1.0114,-1.2473
6.884,4.4916,6.6815,7.2854,6.7668,0.7329,-0.7289,-0.9161,0.5198
6.888,7.7363,7.4056,7.8079,8.0507,0.3960,1.0816,0.1294,0.1211
6.892,7.8689,7.3336,5.9040,7.0822,1.1154,1.9569,1.8761,1.4394
6.896,7.7117,7.5549,7.8749,8.5282,3.6411,1.5294,2.0430,1.1532
6.900,7.6300,7.6357,8.5090,7.0709,4.0090,4.7234,3.2143,5.0248
6.904,7.3312,7.2833,6.8967,7.1824,6.9311,8.1790,6.2169,4.3610
6.908,6.3443,7.5641,7.2783,6.4381,7.7263,6.9809,6.1108,5.5142
6.912,6.7263,6.9640,7.9246,5.8163,7.9553,8.5563,6.4787,5.6746
6.916,8.6072,7.2657,5.6275,6.5209,9.9683,7.0401,6.6528,6.2962
6.920,7.0649,5.7909,5.8304,4.8237,8.1272,7.7450,5.2700,5.1673
6.924,3.0827,5.5211,3.7151,3.6067,6.3749,7.8721,6.4737,5.0355
6.928,2.7013,4.9417,4.1901,2.8158,5.0987,5.3917,4.6554,5.1424
6.932,4.3002,3.8622,1.2120,2.2097,4.2502,5.1514,4.3650,3.7496
6.936,3.3216,2.2051,2.1045,0.6379,2.8672,3.9575,4.0337,3.0456
6.940,1.7915,0.8976,0.4149,1.2110,2.2715,3.6630,3.3345,3.0877
6.944,0.1943,0.5220,0.0007,0.7756,2.2639,3.8716,2.1093,1.5057
6.948,0.3529,0.8486,0.2529,0.6359,2.7531,2.9474,0.0332,-0.0315
6.952,1.2724,-0.3943,-0.3600,-2.1461,0.3071,0.3877,-1.3160,-1.0668
6.956,-0.4785,-0.6765,-0.2280,-1.5541,0.6625,1.7663,-0.1090,-0.7297
6.960,-1.2824,-0.0688,-0.4229,-0.7432,-1.0264,-1.2030,-2.0470,-3.0735
6.964,-0.7747,-0.1375,-1.6895,-1.8937,-0.8657,-1.5854,-3.1385,-3.2754
6.968,-0.7851,-1.2084,-1.2233,-1.7238,-2.4559,-3.2253,-2.2373,-4.0716
6.972,-0.1056,1.5763,-1.4435,-1.5961,-4.5486,-2.8127,-2.4005,-4.1914
6.976,-0.2469,0.6428,-2.7275,-0.6752,-2.9615,-3.3758,-4.6062,-5.1855
6.980,0.7620,-0.6441,-0.8907,-1.6685,-3.7127,-4.0635,-4.1642,-4.5277
6.984,1.3076,-0.6360,-1.4925,0.5151,-3.3655,-3.3310,-2.7666,-2.0748
6.988,1.6455,1.9366,1.3436,1.0578,-2.2145,-1.2432,-4.6000,-2.5617
6.992,4.3069,3.1752,0.4180,1.5088,0.1570,-1.7435,-1.6731,-2.5168
6.996,3.1694,4.9570,3.4631,4.3992,-0.0227,1.6114,-0.7633,0.9300
7.000,6.1435,5.1022,4.8885,4.1135,3.5013,5.5706,3.4155,2.4264
7.004,7.0445,6.1274,6.9389,6.0095,6.4542,5.8631,3.2588,3.6091
7.008,9.7592,9.4310,7.3951,7.5171,7.5055,8.8566,6.9955,7.2681
7.012,9.8984,11.6884,9.5710,7.6333,9.4658,9.3849,6.3061,8.1984
7.016,9.5867,10.7337,10.5528,8.6172,8.5045,8.4878,8.5040,9.0265
7.020,11.6416,11.7636,10.6393,8.8008,9.4181,9.6319,6.5918,7.1545
7.024,11.9500,11.9990,11.7731,8.8734,11.0321,7.4925,9.5626,9.0574
7.028,12.8171,11.0638,9.9970,10.0350,9.2434,8.9736,8.9744,8.4391
7.032,12.0189,11.8579,10.2881,10.7727,9.1961,8.0216,8.5568,7.1650
7.036,12.1842,12.8100,9.2125,9.9628,6.8640,7.1107,9.0039,5.7417
7.040,12.2366,13.2459,10.2381,7.5079,8.5375,5.9539,6.0947,6.6761
7.044,12.3078,12.3327,8.6365,9.3451,7.5128,7.4885,7.1161,3.9036
7.048,12.5742,14.1504,9.8745,8.8416,5.9268,5.1937,5.6624,5.2935
7.052,13.1042,12.9993,10.9392,8.1134,6.2786,6.0959,2.6649,3.7642
7.056,12.5093,12.6034,9.4869,8.9080,4.5439,5.3126,3.9281,3.4075
7.060,10.1539,10.9381,7.2905,9.9552,4.0833,3.8396,2.7682,2.6432
7.064,11.3097,10.1994,7.0283,5.7171,2.2448,2.1839,1.4641,0.3498
7.068,9.1642,10.8556,6.9392,6.1266,2.4207,1.2668,1.1763,1.2753
7.072,7.9088,7.9791,5.0539,5.5070,0.3467,-0.9930,0.0098,-0.6854
7.076,8.8763,8.7017,4.0308,4.9792,-0.7237,-0.3987,-2.1542,-2.1497
7.080,7.4159,8.3375,3.8330,4.2713,-2.5114,-1.8419,-1.6291,-1.6041
7.084,6.9000,6.7876,2.2464,1.7786,-0.3732,-1.4703,-1.1853,-1.3277
7.088,5.9119,7.7146,3.4976,1.9563,0.1890,-0.4804,-1.2880,-0.9074
7.092,7.7361,7.3610,2.0604,3.5242,1.4785,-0.0017,0.4749,-0.1926
7.096,7.0867,7.7289,3.5693,1.5834,1.8111,0.9063,0.7059,2.2994
7.100,8.5972,8.6865,3.3817,2.2120,3.8342,2.0951,3.2139,2.7565
7.104,8.3994,8.5114,2.6678,2.5534,3.6681,2.9370,1.9493,2.9781
7.108,8.3153,7.5187,1.9532,2.5398,6.0902,6.3913,4.3011,4.3550
7.112,9.6368,8.1856,3.7455,4.4085,6.2818,7.2412,3.7699,5.6677
7.116,8.4193,8.0514,1.9185,2.1819,7.4220,6.9144,5.4981,6.3301
7.120,9.2199,9.3930,3.1125,1.5900,6.8740,6.8524,5.2035,5.7693
7.124,9.7895,8.5775,2.8848,1.7834,5.8473,6.8208,5.9401,4.8420
7.128,8.2722,9.0201,2.7780,2.3060,7.1922,6.0582,4.9597,7.4464
7.132,8.8680,8.2857,1.4533,0.7609,4.4195,4.7582,6.0397,5.8211
7.136,9.8412,9.5135,3.0854,2.9250,5.7693,4.6170,5.3237,3.8011
7.140,9.6769,9.3033,2.2528,1.8552,4.2145,2.9546,4.7540,4.8871
7.144,11.6665,10.6757,1.6423,2.9070,5.4683,3.9734,3.3766,4.4824
7.148,13.8485,12.5929,4.1239,4.1261,4.8433,3.3914,5.1614,2.9838
7.152,11.3364,13.4529,3.8767,4.0537,3.8402,3.2801,2.5427,2.2279
7.156,12.6264,13.2013,5.3707,4.5668,3.4129,5.0263,2.8698,1.3222
7.160,14.7697,12.9206,4.3217,4.6965,4.8444,3.7735,2.9943,1.5836
7.164,16.2927,14.7611,5.2886,4.5833,4.8376,2.8008,2.0396,1.2849
7.168,14.8220,16.7345,6.4453,5.0783,3.1915,1.4051,1.3350,1.9842
7.172,16.2630,18.6207,6.1894,7.6714,2.3222,1.5092,1.7871,-0.9512
7.176,18.6119,17.7778,7.2433,5.9906,1.1922,0.7847,2.4293,0.8093
7.180,20.1319,18.1010,9.8806,6.5681,1.8894,1.3405,1.6523,1.2374
7.184,20.0437,21.2224,9.0488,7.7479,0.9535,2.7281,1.4950,2.6943
7.188,21.6065,21.9129,8.8223,9.6123,3.1685,4.2958,3.5334,3.3102
7.192,23.7250,23.4040,10.8539,9.5382,5.8413,4.3555,5.0495,5.0515
7.196,26.1577,25.8455,13.3097,13.0542,8.0053,7.2723,7.0545,4.7505
7.200,25.7316,25.9501,14.1198,11.7794,8.8246,9.4812,8.6524,6.9370
7.204,29.0211,29.2363,13.3052,13.5830,9.2798,11.2572,7.3009,10.0783
7.208,29.3905,30.5325,13.6653,14.1978,14.1009,11.4787,10.2976,11.6215
7.212,30.9457,29.9088,14.3410,14.5568,14.3882,13.2789,12.0168,12.5661
7.216,31.3635,30.8852,15.7051,15.0375,15.5976,13.7826,11.9169,12.6274
7.220,30.8517,31.4669,13.7254,14.0957,13.7099,12.5907,14.5515,13.0258
7.224,31.7929,29.4774,13.9815,13.5098,12.8798,11.2770,13.1065,12.9250
7.228,30.9374,32.9151,13.0494,14.1212,12.2724,12.5963,12.0594,12.5073
7.232,32.0522,30.9565,12.9792,12.3859,10.4487,11.7327,10.5575,12.1665
7.236,31.3437,31.6450,11.7892,13.3336,10.8373,9.7779,10.8625,12.1401
7.240,30.9666,30.9142,12.7395,11.2413,11.3128,10.5917,9.5328,11.2767
7.244,30.0219,30.4485,12.6662,9.9617,11.3897,9.4071,9.7344,10.9378
7.248,31.4117,30.4271,11.6697,9.9782,9.4028,9.5965,8.0227,8.4556
7.252,29.7975,30.3736,10.7176,8.7010,9.1355,9.1984,6.1905,8.4120
7.256,32.2595,31.0764,9.7510,7.9510,8.8324,7.7532,6.5032,7.9580
7.260,31.9444,30.5940,7.3378,7.7266,9.4066,7.1681,6.5906,6.6630
7.264,29.9984,31.0174,7.0209,5.3956,5.9643,6.6695,5.7317,5.7782
7.268,31.3009,30.2270,7.6449,6.6915,5.1106,4.3579,3.9166,4.5397
7.272,31.8561,31.3087,6.0782,6.0047,3.7284,2.7893,3.8896,3.0009
7.276,29.4972,30.1000,4.7204,3.8412,3.2939,3.6488,3.3117,3.0811
7.280,30.0598,30.2858,5.4877,4.1336,2.5151,2.5656,3.1980,3.5675
