time,Fp1,Fp2,F3,F4,C3,C4,O1,O2
0.000,1.1339,3.6653,-0.9680,1.9375,2.9008,-9.5396,-6.3932,-8.6350
0.004,1.8849,2.9959,-1.1017,0.7257,1.3847,-9.3480,-6.4905,-6.6221
0.008,4.3566,2.1216,-1.8046,0.3414,3.7003,-7.5853,-4.3423,-8.9234
0.012,6.4436,-0.3110,1.3582,1.8150,2.4243,-5.8250,-2.6699,-8.2004
0.016,7.8440,0.7090,3.4983,1.7645,0.4864,-4.1775,2.5316,-10.7256
0.020,5.4715,-0.0041,5.3050,4.0758,-1.6419,-2.1538,3.2923,-8.3975
0.024,5.9101,-2.4228,2.2095,2.3191,0.9926,-2.1534,5.4754,-7.3979
0.028,2.7940,-4.5378,-2.4858,5.2477,0.7452,-1.3029,6.9657,-3.8211
0.032,3.2381,-5.4363,-0.9167,4.3782,2.4741,1.0933,8.4973,0.2114
0.036,0.4468,-5.5631,-0.4520,4.2220,3.1446,-0.3997,11.0779,2.6952
0.040,-1.6416,-9.5371,3.2896,5.4362,3.8689,0.2258,11.4401,7.2580
0.044,-0.6869,-10.0376,2.7885,9.0324,3.7387,0.4489,13.6507,7.8645
0.048,0.7819,-11.7450,4.5575,8.4754,3.4575,2.0408,11.0167,6.3181
0.052,0.7374,-15.3508,3.9837,8.9005,3.9416,4.5172,11.9879,10.7490
0.056,-0.2098,-11.3241,7.2730,10.0872,3.3247,7.3220,9.4182,10.7814
0.060,1.5316,-11.7595,3.1968,8.7397,2.5307,3.9969,7.1598,10.5944
0.064,1.2742,-12.2292,1.4285,6.7687,-0.4284,4.3233,2.1759,11.3097
0.068,2.9232,-4.7890,3.1348,6.7504,-0.9488,4.8035,0.6952,9.3978
0.072,3.8727,-1.2318,2.0099,3.4877,-3.3910,4.8050,-2.9180,11.2867
0.076,5.3982,-1.8662,3.2432,5.9391,-7.4625,1.7633,-6.5279,7.2349
0.080,6.4274,2.7620,1.4126,6.2503,-5.0455,-1.4829,-9.1643,7.6115
0.084,5.3307,1.1699,1.1096,6.4863,-4.7057,-3.5848,-11.5932,5.3840
0.088,3.7752,0.2333,4.4648,7.0195,-5.0207,-3.7943,-14.1699,2.4217
0.092,5.1170,1.4309,4.6600,3.0387,-6.4108,-0.8221,-16.1138,-0.0433
0.096,5.1761,4.3274,4.4833,1.6219,-2.2089,-4.4227,-16.5623,-1.6765
0.100,6.9208,5.3884,5.2802,2.2898,-1.3523,-5.1750,-14.5991,-3.3442
0.104,9.1623,3.9774,5.0617,1.0980,-1.9062,-5.7270,-15.1812,-3.8210
0.108,6.0754,3.7933,3.1611,0.3242,2.5699,-5.4037,-11.3285,-2.5146
0.112,3.8203,3.3524,3.2832,-2.0360,3.8508,-5.1249,-6.4727,-2.7114
0.116,5.3855,1.6376,3.0401,-0.5033,4.4992,-2.8736,-3.3787,1.3614
0.120,5.0866,1.1334,5.4689,0.5433,6.1272,-5.6319,-0.4861,6.3369
0.124,5.1044,-0.5682,2.6008,-1.2888,5.8246,-5.5590,3.4703,6.6467
0.128,2.6516,-0.4337,5.0113,1.6030,4.7338,-5.3301,6.4271,9.9694
0.132,0.9728,0.0271,8.0822,3.0134,4.9769,-3.5738,8.2788,10.2978
0.136,-1.4824,-1.9680,10.1923,0.4654,4.0808,-3.1612,8.8014,13.8022
0.140,-0.6845,-1.9375,9.2093,1.4873,5.8972,-1.2660,7.1143,17.2825
0.144,-2.1859,-1.3140,11.6528,3.2543,6.4433,1.8095,8.5772,16.8277
0.148,-3.4997,0.0353,11.4143,3.0076,9.3044,5.6255,5.8155,16.3244
0.152,-2.4651,-2.8933,10.9068,8.6539,12.1267,6.1769,3.1535,15.4770
0.156,-2.6881,-3.3637,10.1565,9.1032,10.0541,5.7324,3.2700,15.6637
0.160,-2.0231,-5.0324,10.0776,11.4942,8.1416,5.6155,3.0366,12.5171
0.164,-0.0496,-4.6802,7.8305,11.1400,10.9593,6.1494,4.1885,13.7971
0.168,-1.3330,-6.0080,6.4844,12.5340,8.1123,7.7158,4.2271,15.6310
0.172,-0.1045,-3.4069,5.7234,10.4665,7.5701,2.7252,-1.8231,8.6873
0.176,0.5054,-1.6052,5.1433,7.5880,5.1835,2.9178,-9.0696,7.1612
0.180,0.2083,1.5421,4.4419,6.4678,1.4340,1.3237,-12.2135,5.5716
0.184,0.3648,5.4083,4.9477,6.9849,0.4911,3.1399,-9.8496,5.8451
0.188,4.3127,4.6134,5.1790,5.7538,-1.0414,-0.4999,-14.1571,-0.5720
0.192,1.9637,3.5508,5.4194,1.9360,-1.5867,-2.4494,-10.7814,-3.4219
0.196,4.2883,8.4610,7.2602,2.0520,0.6898,-1.8704,-9.5540,-3.7178
0.200,2.4827,5.9778,7.4977,1.2348,-0.1884,-4.4397,-8.7268,-7.6256
0.204,1.7765,3.7117,5.4573,-0.3703,3.3361,-5.3101,-5.7531,-7.7409
0.208,2.4606,4.8849,5.9400,-1.0892,1.0670,-7.2259,-5.5995,-7.8890
0.212,4.2072,3.7273,7.2517,0.2008,2.7226,-5.2043,-2.2798,-7.2353
0.216,5.5087,3.2816,4.8853,0.4117,1.9158,-5.5774,-0.1711,-11.6214
0.220,5.9973,5.0228,9.2961,-0.2865,1.8557,-5.0937,1.5085,-8.7229
0.224,6.0678,4.9222,9.3144,-1.5421,2.0252,-5.2220,2.9185,-6.7156
0.228,5.7282,6.3208,7.8488,-0.4761,1.4617,-6.7119,4.4826,-4.5772
0.232,6.7871,0.6674,6.8380,-0.9549,-1.4171,-6.1796,4.1760,-2.6332
0.236,4.7177,2.4659,9.2666,-2.9653,-0.8933,-5.1273,3.2810,0.4773
0.240,-0.9044,-2.3931,10.8297,-0.2365,-0.5717,-1.2287,6.0940,3.0451
0.244,-1.1819,-6.4098,11.6983,1.9662,-0.4183,1.2891,8.5666,5.1367
0.248,-4.5170,-3.8395,9.5186,3.5304,-3.7887,5.4329,8.1609,5.6909
0.252,-3.8880,-5.3600,8.7299,0.4573,-1.3774,6.9286,6.4066,5.7493
0.256,-4.5006,-4.2028,6.0590,-1.2741,-5.2664,11.8681,6.1651,6.5275
0.260,-3.6899,-3.8594,5.2531,-0.7562,-2.4370,13.3483,2.9040,5.3927
0.264,-3.6714,-0.7358,2.7736,-2.4220,-4.2690,11.1369,-3.6190,2.9811
0.268,-2.4912,-1.6299,4.8950,-4.4397,-4.4644,9.6918,-8.5473,1.1292
0.272,0.5304,-2.7818,2.3745,-1.7388,-4.3558,14.4286,-12.6355,2.6951
0.276,0.1548,1.1916,5.4434,-2.7271,-5.4086,10.8354,-15.2420,-1.0193
0.280,2.6154,3.4656,1.4771,-1.0810,-6.5087,10.3468,-18.6678,-3.4481
0.284,2.3080,5.3786,4.5716,-4.0575,-8.7504,13.4211,-18.9256,-4.4104
0.288,1.9527,4.7308,3.6318,-1.7316,-11.5080,7.2076,-17.9799,-7.6854
0.292,-0.5409,4.7970,2.5604,-7.4242,-8.7187,9.6260,-18.0640,-10.0804
0.296,-0.1082,3.2461,3.6837,-6.8249,-6.4689,10.3936,-14.9510,-13.6385
0.300,-1.2425,2.4635,2.4228,-7.7273,-6.3374,8.7329,-15.4251,-12.1441
0.304,-1.5526,2.5636,0.7123,-11.3589,-5.3037,4.8223,-12.5454,-14.7629
0.308,-3.4749,0.8632,-0.4550,-10.1454,-2.9667,4.1658,-11.2647,-18.8858
0.312,-3.4994,0.5069,1.0337,-8.2412,-0.5825,1.7021,-10.3071,-16.6732
0.316,-0.7418,-2.4536,-0.1188,-7.4094,1.5800,0.6067,-6.3187,-15.1035
0.320,-2.4570,0.3118,4.1036,-3.8399,1.4913,1.5230,-2.1799,-12.2529
0.324,-1.0734,3.0173,4.7999,-1.5490,4.0581,-0.2978,2.8806,-11.2284
0.328,-2.5849,3.4591,5.5803,0.0762,5.6957,-3.3845,4.5327,-6.0461
0.332,-3.2999,4.5253,6.9065,-0.9558,4.4659,-2.5355,5.1681,-1.3493
0.336,-5.4733,3.3240,4.1631,1.8809,4.9877,-1.9540,4.9951,-3.2847
0.340,-8.6600,-1.7522,3.6328,-2.3541,6.8185,0.6587,4.9967,1.5829
0.344,-9.6510,-2.3902,2.2985,-2.8883,7.5299,6.3048,7.0164,-0.7093
0.348,-12.0259,-2.2533,3.5213,-2.1950,9.3558,2.5300,8.2577,-2.5235
0.352,-11.0133,-1.6054,0.6698,-1.4273,11.2493,6.1634,10.7078,-2.3154
0.356,-10.9447,0.5039,0.5695,-3.2524,11.3854,5.3661,7.5549,0.0882
0.360,-11.3377,-4.9655,0.5432,-2.6869,8.7086,7.1649,5.4128,-1.7015
0.364,-9.9421,-1.9375,3.0536,-3.4796,4.7057,7.6856,4.3615,-2.6369
0.368,-7.0533,-1.2218,0.9395,-4.0882,3.9332,6.6969,1.4683,-5.6991
0.372,-4.8912,-3.3315,4.3661,-3.9020,1.0174,4.4124,0.1488,-5.5289
0.376,-4.4242,-0.6307,1.3024,-4.2669,0.8576,4.3594,-2.3304,-7.5634
0.380,-1.4354,0.5905,0.5322,-4.1015,0.5764,2.7990,-2.4968,-9.3309
0.384,-1.3119,2.7088,-1.2488,-2.3125,-1.1472,2.7270,-1.0069,-12.0806
0.388,-0.7596,4.4420,-4.3991,-4.5085,-3.3272,0.5033,-5.4046,-9.2726
0.392,4.0296,4.4559,-6.4121,-8.0061,-2.1581,1.1331,-3.2512,-9.3759
0.396,0.9671,2.1915,-7.2891,-7.6543,-2.8311,1.4172,-3.4017,-16.1894
0.400,1.6784,0.5943,-6.6657,-9.9794,-0.0170,-1.1795,-4.4264,-12.8048
0.404,1.3980,-1.3798,-10.5309,-13.0296,1.4712,0.1804,-4.0456,-14.5462
0.408,1.2045,-0.3572,-5.7437,-12.2787,0.5422,-1.2820,1.8217,-13.9723
0.412,-2.8531,3.1913,-0.4621,-12.1793,0.0890,-3.7456,2.7681,-10.9794
0.416,-4.3272,0.4859,-4.8638,-13.0312,1.9013,-2.8012,5.2501,-9.8723
0.420,-4.9744,-2.6792,-0.5331,-13.9866,2.4117,-1.6735,5.7851,-7.7627
0.424,-3.5228,-3.3004,1.5010,-14.8382,3.9749,-5.1518,7.7559,-9.1040
0.428,-4.1834,-4.2444,1.2181,-15.4045,2.1823,-6.6111,12.1207,-6.2902
0.432,-3.1574,-4.2703,-0.4609,-12.4548,1.3324,-7.2264,13.5360,-5.0411
0.436,-2.3899,-5.5049,-0.0787,-9.0248,0.0540,-6.5986,15.4356,-1.0746
0.440,-4.4360,-5.1698,-3.5847,-7.8027,-0.9989,-4.4198,17.3677,1.9000
0.444,-5.2611,-2.2421,0.7882,-7.7866,-0.8587,-1.8939,15.7874,2.4049
0.448,-5.2761,-2.7727,3.3149,-6.0543,1.6993,-0.7419,13.1629,3.2293
0.452,-3.6222,-4.2970,3.0491,-4.7805,-0.0345,2.7751,11.2633,4.7191
0.456,-4.0841,-4.0365,3.1583,-3.5280,0.6203,6.8201,7.8533,2.4938
0.460,-3.5199,1.6497,4.1753,-2.6798,3.2138,6.2876,6.3499,5.2413
0.464,-1.7555,5.3394,2.7734,-2.9134,3.1309,7.9412,5.7398,4.4299
0.468,-5.0095,4.2500,2.3255,-3.2827,2.9202,11.0512,1.5558,2.7256
0.472,-4.2703,4.5270,2.4592,-2.3625,3.1420,9.7219,-1.6455,-1.0157
0.476,-4.7505,4.7600,0.3123,-5.4698,-0.4691,7.7492,-1.7928,-0.8968
0.480,-3.0074,3.5494,-2.6863,-7.3008,-3.1160,6.2707,-7.3780,-4.1406
0.484,-5.7020,4.6580,-1.1034,-3.8243,-1.1462,3.4141,-8.0307,-4.5559
0.488,-2.2589,5.8235,-3.6612,-4.9484,-1.6314,3.2450,-8.1945,-7.8775
0.492,-1.4295,9.6658,-1.9766,-4.7617,-1.6775,1.6887,-9.9373,-10.4269
0.496,-1.3241,6.4443,-3.6985,-3.9938,-1.8755,-0.5448,-9.2291,-13.3879
0.500,-2.9549,8.6037,-2.1946,-4.8529,-1.8391,-0.6947,-8.3767,-17.3833
0.504,-1.0390,6.7686,-1.4162,-5.9949,-0.1395,-0.1809,-8.1834,-14.2748
0.508,-1.3146,4.8981,0.1659,-3.4504,0.3316,-3.5316,-3.5468,-10.3375
0.512,-0.4507,4.1726,1.9831,-4.9397,-0.0117,-4.9885,-0.8087,-8.4744
0.516,2.6629,5.7476,1.9458,-7.2730,0.8267,-8.1211,1.5879,-5.7762
0.520,1.3996,4.9768,1.6843,-8.3568,2.2636,-9.1035,3.8790,-3.7482
0.524,-0.0126,2.4094,2.1826,-10.1232,1.2851,-7.4884,7.1002,-0.5138
0.528,-5.1717,2.7474,1.6384,-12.9219,2.4091,-5.9789,10.5040,2.5763
0.532,-4.5047,3.6419,0.6949,-14.5024,3.2430,-4.7662,10.4282,8.7021
0.536,-4.2323,0.1822,-1.9346,-11.2990,2.7822,-0.9853,10.8786,12.9399
0.540,-3.4750,-0.2034,-1.6067,-9.6850,4.7766,3.3950,12.9682,13.7193
0.544,-6.1016,0.0508,-1.7835,-7.6859,3.3213,3.8193,12.7752,16.0511
0.548,-2.4141,-3.3388,-1.0320,-4.8669,3.7118,3.8002,15.2020,14.9640
0.552,-1.3015,-3.1878,2.7097,-2.4808,3.2714,2.2813,15.7781,19.2275
0.556,-1.7614,-2.8572,4.3392,-5.3691,4.1162,2.9783,15.6375,16.3410
0.560,-2.2973,0.2124,4.4392,-4.9283,5.1126,2.6979,13.0329,16.5001
0.564,-2.0038,-2.6838,1.2420,-5.1546,2.9613,5.0728,11.8982,15.3464
0.568,-2.4815,1.4097,1.1953,-1.8325,3.0008,4.6481,6.9294,9.9562
0.572,-2.5280,1.2958,-1.0985,-4.6198,2.8984,4.7969,4.8094,11.0086
0.576,-1.2954,2.3047,-0.5345,-1.8824,-0.2609,7.2295,3.0599,4.0028
0.580,0.9033,2.8104,-2.9586,-4.7331,1.0778,5.1085,-1.9114,3.0489
0.584,1.4786,1.5524,-3.8760,-5.8124,-1.9169,9.9914,-6.5175,3.6271
0.588,4.1942,-2.2223,-2.5721,-3.9090,-2.8266,7.9017,-5.7186,-0.4807
0.592,4.6657,0.2151,-2.4008,0.0533,-0.0215,7.4073,-6.4255,-1.9791
0.596,3.8840,3.0930,-2.8905,-1.1311,-1.2000,9.3617,-8.1814,-3.7734
0.600,2.1405,1.6546,-2.2876,-1.2393,-5.1710,6.8855,-5.2229,-4.6996
0.604,2.4672,-0.9057,-5.4181,0.3474,-5.6443,2.8153,-3.1865,-2.3530
0.608,3.4048,-1.6350,-5.1852,0.4408,-4.5760,1.4497,-0.6025,-1.0628
0.612,0.8953,1.5447,-2.5817,4.5112,-3.8189,0.2975,2.1749,0.9965
0.616,0.6386,1.8482,-3.9099,4.4803,-4.0502,-1.1846,3.7668,4.1913
0.620,-1.1223,1.5143,-5.5500,3.8539,-4.3260,-1.9600,3.9299,1.6248
0.624,-2.7410,0.4616,-6.5353,7.1209,-3.6882,-3.2894,6.1601,3.9419
0.628,-4.4285,-2.1056,-4.0325,7.8506,1.1361,-6.3494,7.0039,8.3281
0.632,-4.7178,-5.7824,0.6383,8.2085,3.4231,-1.5006,8.1398,11.8014
0.636,-4.6654,-8.0502,1.2766,8.5023,6.0715,-2.9927,7.8352,13.2193
0.640,-7.3678,-7.1411,0.2562,10.8992,3.7944,-3.8240,8.7020,12.4254
0.644,-5.7251,-6.2887,0.9723,10.9033,2.8906,-5.1745,7.6741,14.7739
0.648,-5.8424,-2.7644,7.9570,11.9536,5.0887,-2.5058,4.0396,13.8449
0.652,-7.8071,-3.3890,7.7106,12.3981,6.6733,-3.7673,5.4214,11.9809
0.656,-7.8280,-6.1973,7.4020,12.4399,7.2880,-0.1249,3.1245,12.3210
0.660,-7.4938,-5.6906,8.0332,13.1482,5.7918,1.0838,2.9553,12.7057
0.664,-3.6154,-1.7779,4.5940,13.3388,7.3124,-0.2617,-1.2805,12.8395
0.668,-3.0764,1.6393,4.4366,10.6905,7.9314,0.1757,-5.3287,9.6801
0.672,-2.5625,6.0535,3.5090,10.6923,7.3671,5.9072,-8.0481,8.4677
0.676,-2.0815,5.4701,2.3082,9.1544,6.1367,6.3236,-10.5098,2.9234
0.680,0.3176,3.4592,-1.9885,5.4830,5.4006,10.8780,-13.1807,1.7213
0.684,1.5743,3.7661,-3.5286,3.6787,2.1964,15.0447,-13.5248,0.9594
0.688,0.9554,4.2365,-2.2575,3.3427,2.9084,10.7981,-10.7920,-4.0278
0.692,1.5742,6.4128,-3.3772,0.4697,-0.8614,11.9156,-10.8075,-6.9751
0.696,3.6099,4.9590,-2.6567,-0.4360,-1.7661,8.6258,-10.9030,-7.2855
0.700,5.5111,7.1021,-3.5234,-3.1079,-4.9423,8.6953,-9.5827,-10.4506
0.704,7.4569,6.2196,-5.0548,-2.5129,-5.3475,3.2016,-9.1632,-14.5919
0.708,6.1333,6.9983,-4.9031,-2.4380,-6.2377,-0.1473,-7.2305,-14.7748
0.712,3.9794,6.5931,-5.1703,1.1721,-5.8679,3.1451,-7.2538,-11.0155
0.716,4.7914,3.3554,-7.0187,1.0090,-3.8418,0.0648,-4.3483,-11.2450
0.720,6.8818,0.0997,-5.3466,0.3891,-2.2196,-0.8014,0.6852,-6.9067
0.724,4.7555,2.0900,-6.1794,-1.1215,-2.9941,0.8854,2.3558,-4.0086
0.728,2.3458,-1.1384,-4.5886,1.0819,-1.9646,-2.1461,4.0398,0.6644
0.732,4.4813,0.6118,-6.5278,0.1093,1.8357,2.2703,7.6664,1.0755
0.736,2.0500,-4.9616,-1.0809,3.6450,1.3336,-1.2553,7.5192,0.7924
0.740,0.4534,-8.1368,-1.7633,4.8802,-0.2354,-0.5600,11.4617,1.0865
0.744,0.0512,-6.9567,1.2302,6.3936,1.3181,-1.2342,10.2535,4.0133
0.748,1.4333,-5.4828,2.0406,8.3311,1.2460,1.0581,8.6379,6.3628
0.752,0.9831,-9.5516,2.3722,5.5328,0.9495,0.1932,6.6894,7.1265
0.756,2.8380,-5.3481,6.7861,10.7737,-0.2116,3.4968,4.8789,9.0348
0.760,3.5620,-4.4403,4.1432,13.0368,-0.8593,4.4342,4.1627,5.5293
0.764,6.6641,-3.5200,1.8163,17.6991,-1.0765,3.2520,1.7245,5.8223
0.768,5.6899,-4.8984,1.9973,14.2781,-0.6867,8.7967,-2.3639,4.4383
0.772,8.4845,-4.5434,1.4529,16.1861,0.3248,10.2215,-1.4507,5.6092
0.776,5.9699,-4.1128,3.0756,15.0834,0.4413,9.9995,-4.3127,5.1628
0.780,5.0888,1.1057,2.5656,17.3852,3.0589,9.5985,-6.1282,1.9627
0.784,5.0325,-0.0972,2.9778,13.6291,0.2150,8.3744,-5.9288,4.5102
0.788,0.3253,-0.6007,5.6450,15.1100,0.7273,6.8494,-6.0144,-0.0651
0.792,-1.0771,-0.2762,5.0025,13.4463,1.3645,9.6981,-4.8093,-2.5113
0.796,-2.4088,2.9387,4.3118,9.8680,-4.9364,8.8078,-4.4462,-1.2228
0.800,-1.4544,2.3365,2.2656,10.3789,-1.7243,5.9701,-7.3780,-0.2351
0.804,-2.3352,2.0130,3.8456,9.4481,-2.8276,5.3120,-7.6119,-3.9091
0.808,-2.2218,2.5077,4.0555,7.6093,-4.5208,4.9440,-6.3282,-3.1651
0.812,-4.8864,0.8957,5.2803,5.9559,-4.7764,1.5440,-7.2452,2.8305
0.816,-5.6842,-0.4276,5.6389,3.0322,-1.7029,0.9598,-5.4113,1.3713
0.820,-5.2369,-1.2689,5.4084,3.9106,-1.1531,0.1945,-1.5697,2.3569
0.824,-3.3201,-3.4004,3.6202,3.2445,-0.5500,-2.5055,2.4628,4.7838
0.828,-2.6644,-5.0133,3.6826,2.7265,1.2563,-0.5121,3.8737,7.7167
0.832,-4.8846,-1.4610,5.0796,1.1512,2.2677,-4.4733,9.0967,10.3260
0.836,-7.7143,-1.9027,3.4839,2.3964,3.2420,-3.9118,12.8966,12.0569
0.840,-8.4986,-7.4019,3.4550,3.4708,4.0882,-4.6310,12.1103,12.5218
0.844,-7.1341,-5.9266,2.2001,2.8874,2.9285,-4.2669,12.4291,13.0613
0.848,-6.2321,-7.9164,1.8512,1.6376,2.7304,-2.2602,10.5607,13.8731
0.852,-8.8086,-6.6612,2.4193,1.9716,2.4870,-2.1166,10.5456,9.4929
0.856,-5.8072,-5.7961,3.5495,1.4115,3.0357,-1.7853,7.5903,12.8913
0.860,-2.1163,-4.3304,1.4011,2.6867,4.6397,0.4994,5.3785,11.3870
0.864,1.6530,-0.6372,6.3746,2.1699,4.3895,0.8779,5.9989,8.8322
0.868,7.2048,-0.6456,8.1948,1.6068,4.7773,0.9765,3.4578,9.1324
0.872,6.8386,-0.8744,10.7207,1.3181,4.3298,5.5475,1.3852,3.8493
0.876,6.1628,0.8223,11.4417,0.6744,8.0205,7.8209,0.5122,-1.2694
0.880,5.5296,2.3377,11.4827,-2.1584,6.2840,10.4248,-4.5540,-3.7754
0.884,5.1184,3.0666,10.5883,-2.3884,7.1061,7.0153,-5.5147,-6.3374
0.888,4.6697,2.6126,9.9505,-1.1769,4.9387,7.0472,-9.5415,-8.3028
0.892,5.6464,4.4955,6.2004,-1.4457,0.6211,8.8189,-8.3612,-11.6909
0.896,5.8577,5.1357,7.2303,-1.1217,0.6520,6.3467,-11.1471,-14.7181
0.900,2.2277,0.8930,5.0085,1.7323,-0.3947,4.8834,-9.3970,-13.3211
0.904,0.4582,3.2701,3.6971,-1.1325,-4.5369,4.9087,-6.7618,-15.6598
0.908,-1.2910,3.5744,0.3774,-2.5236,-7.5078,4.5175,-2.0180,-16.6334
0.912,-2.4764,5.0416,-1.7357,-1.1435,-8.9254,2.7898,-1.9118,-12.0484
0.916,-2.6320,2.7764,-2.0550,-0.3129,-8.3896,2.4659,4.0205,-12.1524
0.920,-4.5539,2.7255,0.7886,0.6163,-7.3616,2.4140,5.0330,-8.5491
0.924,-3.5985,-0.7833,0.5724,2.5839,-8.6021,5.5894,8.9072,-9.6251
0.928,-7.9316,0.0802,3.4254,2.4328,-7.2148,4.9938,6.9884,-6.8558
0.932,-7.8473,-1.7780,2.6305,4.4993,-7.7021,5.3462,8.4133,-5.5280
0.936,-7.5110,-3.6359,1.6823,4.3004,-7.3429,6.3301,11.2310,-7.1335
0.940,-7.7025,-3.0035,1.4010,3.9331,-9.7969,3.4960,11.5164,-6.5283
0.944,-8.4548,-3.2207,1.0197,6.9228,-5.7263,1.9878,11.2488,-3.4382
0.948,-6.2618,-0.6236,3.0688,5.8540,-7.1665,2.5604,11.3967,-1.3059
0.952,-3.9355,-2.2637,1.3277,6.5894,-7.3854,-1.1516,12.5978,3.4452
0.956,-5.0900,-0.8265,7.1950,7.4384,-7.0392,2.3847,9.2463,4.0787
0.960,-4.4807,-2.2837,5.5752,4.8906,-7.9850,3.5119,5.4774,4.0846
0.964,-2.3231,-2.1016,7.5341,4.2999,-5.3401,6.3992,4.1145,0.3097
0.968,-0.7196,-3.5925,7.5639,2.7670,-4.2084,8.8159,0.4533,-3.7801
0.972,0.6502,-2.5331,9.3913,0.6247,-2.7820,8.5527,-3.6724,-1.6557
0.976,1.5106,-2.4944,7.1670,0.4385,-2.1948,9.2506,-6.8597,-3.2114
0.980,2.6130,-0.7124,7.4510,-0.2306,-5.3673,9.5620,-7.7375,-2.7317
0.984,3.8668,-1.2003,9.2465,-3.6491,-5.4023,11.9639,-12.6670,-5.0032
0.988,2.6487,-0.4233,11.0955,-2.7249,-5.5277,12.6880,-16.4378,-8.2907
0.992,0.9333,4.0410,9.3396,-4.0246,-5.4565,18.1955,-14.6803,-10.0603
0.996,-3.2194,5.4036,7.9787,-6.8646,-6.1465,15.0704,-12.4685,-13.0742
1.000,-3.2149,3.4066,5.6314,-6.5974,-6.1697,15.8228,-10.5252,-11.0069
1.004,-5.7420,3.2213,6.8705,-7.4845,-6.4084,15.2856,-9.8731,-9.6829
1.008,-6.2429,6.7537,4.3028,-9.1046,-6.2991,15.0003,-6.5121,-10.7231
1.012,-6.8866,4.1165,4.6493,-11.5520,-8.6398,13.2791,-5.7175,-7.8523
1.016,-5.8437,4.7077,6.3162,-9.0141,-9.6740,9.1306,-5.6379,-7.4309
1.020,-5.6320,3.5480,3.9163,-6.9482,-12.5213,8.6434,-6.0358,-3.6964
1.024,-4.5930,-0.6294,6.2945,-9.7538,-11.2325,5.7408,-4.3039,-0.7981
1.028,-5.1215,-0.9065,5.4304,-9.2471,-8.7195,5.7485,-1.0848,-0.0102
1.032,-2.9717,-2.0321,3.5197,-8.6158,-9.9107,2.8733,2.2601,-0.1209
1.036,-2.4688,-3.1332,5.1972,-7.6722,-8.3981,-1.0990,3.2438,5.0186
1.040,-1.6778,-3.6475,3.0493,-5.0359,-6.1749,-4.4809,1.4417,7.0702
1.044,-2.0392,-4.2070,2.9077,-2.7127,-7.0190,-5.3805,3.4129,7.7298
1.048,-1.3778,-4.3628,2.5137,-1.5901,-9.0002,-4.5829,7.1681,10.7626
1.052,2.8921,-4.8125,6.9505,-0.8645,-7.2257,-6.7319,5.9028,11.5294
1.056,4.4421,-5.1381,5.4675,3.2925,-9.9313,-3.2244,5.2211,11.8708
1.060,4.6083,-5.0574,8.8287,2.4808,-10.4491,-4.2936,3.1689,12.4894
1.064,7.2149,-2.1023,9.6835,1.9034,-9.8894,-3.5421,0.6341,12.4311
1.068,3.7922,-3.0824,8.9756,1.3073,-7.4725,0.8786,-3.3762,9.3025
1.072,7.2448,-8.3229,9.5778,2.6366,-7.5560,3.8573,-9.9035,8.8672
1.076,8.9184,-3.3677,8.9047,4.2456,-5.7487,3.7067,-9.7636,3.1336
1.080,10.2918,-3.5773,7.9929,5.2586,-4.1016,2.9149,-12.9688,-1.6591
1.084,8.1402,-2.8709,6.1335,6.1057,-1.3196,2.4467,-10.7004,-4.3409
1.088,9.4598,-1.5962,4.9847,8.2813,-0.7811,5.7715,-11.9877,-11.0329
1.092,9.5061,-1.9286,5.1550,7.1067,-1.5616,9.6269,-10.3751,-11.5137
1.096,6.2950,-0.7908,5.9456,10.7772,-5.4261,10.6050,-10.0687,-12.9231
1.100,6.8396,-1.3611,7.2618,9.1579,-6.9585,9.0118,-7.8657,-15.6270
1.104,3.5325,-1.9765,5.9923,7.9573,-8.2655,7.5378,-6.2794,-18.1723
1.108,2.3574,-3.2591,8.9264,6.5267,-8.5169,6.6813,-7.1104,-13.7292
1.112,-0.5748,-7.5411,8.1828,6.7106,-11.1788,7.0274,-7.0361,-12.0190
1.116,-2.2320,-7.3402,5.5979,7.8421,-11.9291,4.2701,-5.8793,-10.3328
1.120,-3.7165,-7.6197,3.1835,5.9908,-13.0410,3.0792,-1.8616,-7.7459
1.124,-4.9712,-6.6197,4.8208,6.1536,-14.1323,4.8696,-1.4719,-9.2037
1.128,-2.0857,-8.7287,1.1655,7.5115,-13.2679,5.6939,0.4439,-5.9195
1.132,-5.4179,-7.4403,-1.1433,8.0377,-12.1476,8.5105,3.1713,-2.9274
1.136,-3.8406,-7.1438,-2.9266,7.0569,-12.3570,3.4628,6.2652,0.2545
1.140,-4.7762,-7.3051,-1.9559,4.5803,-11.9601,0.5866,8.9555,1.6810
1.144,-3.2275,-7.2318,-3.6101,5.2417,-11.9036,-1.5783,8.8084,6.5717
1.148,-3.4565,-10.0195,0.3243,5.6356,-7.1344,-0.0674,8.8086,6.8285
1.152,-3.4920,-9.1932,0.2060,6.7165,-7.6785,1.5298,6.6505,10.0977
1.156,-4.6112,-10.2774,1.0227,8.6535,-8.9476,3.5516,5.2504,11.1626
1.160,-1.0807,-6.2370,2.3085,10.8481,-6.7177,2.8860,4.6526,12.1723
1.164,-2.7109,-5.0432,3.1487,10.2384,-4.4465,3.0132,1.7441,10.2847
1.168,-2.2860,-4.9818,2.3240,13.8583,-1.7004,4.9073,-2.0691,8.2202
1.172,-3.4139,-5.4676,1.1141,12.1145,0.5104,6.7125,-2.9205,6.2374
1.176,-3.0203,-4.0771,1.7440,9.5957,2.8816,8.9607,-7.1351,0.9884
1.180,-2.0059,-1.9018,3.5505,6.5441,3.9905,5.7499,-8.3433,1.7571
1.184,-3.4306,0.7685,4.7582,3.1937,3.8161,9.4584,-10.9748,-3.3394
1.188,0.1969,1.6732,4.5441,0.0447,2.1893,9.7224,-11.0982,-7.7616
1.192,1.0439,1.5488,2.5694,1.5802,2.9907,13.0938,-13.3787,-11.4148
1.196,3.4469,-2.0576,3.2998,1.0616,4.9920,13.2034,-11.5387,-9.5338
1.200,4.5171,-1.9870,4.7227,-2.0308,2.7450,14.6910,-8.9218,-6.3723
1.204,3.0245,-0.7095,2.9293,-1.7744,4.8167,18.5337,-8.9994,-7.3016
1.208,4.0345,-0.9825,2.8554,0.3260,2.4214,18.1392,-10.9130,-6.7649
1.212,4.5418,0.2008,3.8158,-1.6810,-1.1960,21.8964,-9.2166,-5.4081
1.216,3.1980,-2.7258,0.6822,0.2651,-1.8614,19.6925,-4.8215,-8.6554
1.220,0.0214,0.0116,0.6354,3.2168,-0.6407,18.0116,0.3167,-6.9523
1.224,2.1991,0.4685,0.7425,3.4119,-3.5872,17.9261,8.1230,-5.2097
1.228,-0.1407,0.9457,-1.2548,5.9205,-3.2158,16.5767,12.4855,-3.3710
1.232,2.8332,-3.0184,-3.4544,2.9515,-4.7402,16.8502,16.7897,-0.4841
1.236,2.9513,-3.1412,-4.8323,1.4535,-3.7447,13.8504,17.6110,2.0183
1.240,4.1612,-0.3470,-3.0585,4.7468,-5.5079,14.1903,16.8277,4.3663
1.244,6.0770,-0.9826,-2.7692,5.9745,-3.1391,10.8762,20.1386,6.5052
1.248,8.2338,0.6089,-0.1268,6.1080,-5.1651,11.2234,15.4604,3.8727
1.252,11.3387,-1.1355,2.9524,9.1051,-3.2765,9.2213,15.4374,4.7676
1.256,12.1309,0.8285,5.0610,10.9549,-5.7380,8.1443,12.3252,6.7894
1.260,13.9321,-0.2593,4.1760,11.1116,-5.3340,5.8951,11.9210,5.5036
1.264,12.0328,-4.5666,5.5652,12.5341,-6.7452,6.0065,11.2577,6.1195
1.268,10.6392,-3.7265,4.1801,10.3528,-2.7453,3.6691,7.3230,4.9945
1.272,9.3907,-6.9881,6.1421,10.0264,0.2146,0.1883,4.8334,5.6945
1.276,6.6440,-9.2308,3.9804,12.4230,4.1727,-2.1899,1.2739,4.6107
1.280,9.8196,-3.1203,5.2444,10.5518,6.2223,1.2338,0.3758,4.2266
1.284,9.8629,-3.0546,4.8248,12.1078,5.7310,-1.0056,-4.3394,3.5654
1.288,6.7043,-2.9849,4.6291,11.0070,6.6968,1.1255,-7.4911,3.0022
1.292,4.9209,-2.3686,4.8402,8.9947,6.1594,0.8321,-9.1158,0.9973
1.296,4.8109,-3.5963,2.6249,8.6395,5.7238,2.5756,-10.0771,3.6843
1.300,0.5479,-2.1875,1.4985,6.1176,4.6660,4.8030,-10.7053,1.5598
1.304,-1.3149,-3.7807,0.9646,6.0622,2.3067,7.7501,-9.9034,4.2458
1.308,0.0672,-4.0474,1.2437,6.2556,-0.2972,9.4701,-8.0708,5.4090
1.312,-0.5217,-7.5503,-0.7759,8.4701,-2.8344,12.5879,-4.3153,3.2829
1.316,-1.6048,-4.2029,-0.2613,4.6536,-4.2744,9.8980,-0.7958,5.9902
1.320,-5.8047,-3.8620,-0.6615,5.7821,-4.6791,10.2726,1.2689,6.2338
1.324,-8.3692,-4.9535,-1.0227,5.1083,-6.5316,8.7169,4.2697,9.0473
1.328,-7.1958,-4.0751,1.9017,3.2394,-7.5395,9.6876,5.8298,14.5627
1.332,-7.2867,-7.0883,2.9279,2.5874,-8.6973,10.7407,8.6381,12.6332
1.336,-3.5140,-7.7022,8.7208,1.2398,-9.7986,6.1590,9.8273,18.7552
1.340,-5.3223,-8.5825,8.8254,0.1695,-6.7944,8.4738,11.6151,20.6373
1.344,-5.0331,-4.6798,8.3000,-0.3056,-5.9953,6.1615,11.6437,22.4349
1.348,-2.7249,-7.1547,7.4441,0.8067,-4.3126,4.3155,13.2025,20.2359
1.352,-4.5615,-8.6698,4.9311,3.1017,-4.3454,5.3599,9.1461,19.5046
1.356,0.6891,-11.2141,4.6481,7.9141,-5.4032,5.5160,8.2992,21.5645
1.360,2.4406,-6.7230,8.8685,5.4644,-3.1845,2.8201,4.1314,21.3151
1.364,4.8113,-7.8727,6.0028,3.5489,-1.8319,0.6989,4.9511,18.1889
1.368,5.0422,-8.0844,5.6728,6.7248,-3.6622,0.5846,1.5272,13.1141
1.372,2.9341,-3.7685,5.2313,6.6587,-3.1781,-2.5638,-4.3471,15.5612
1.376,4.8721,-2.2046,5.8687,8.5715,-2.2406,-2.0261,-5.8125,7.1254
1.380,4.1659,-0.4255,5.4918,10.7620,-1.3794,-1.8896,-9.7347,6.5582
1.384,4.4499,-0.1055,7.2784,11.2171,1.0732,1.2335,-10.1193,4.1190
1.388,4.0192,2.7593,4.4208,9.2087,-0.0609,4.2795,-13.8472,0.6532
1.392,2.2345,2.0464,5.0150,8.1607,1.2169,4.9987,-10.5986,-1.2330
1.396,2.8531,2.0638,2.0758,5.1680,1.8854,5.7614,-12.4685,0.5156
1.400,0.9298,2.6606,-0.0318,2.0016,-0.2547,10.6596,-13.0228,0.6007
1.404,1.5412,5.3676,-1.6676,0.6629,-1.3411,10.1627,-11.3184,0.9884
1.408,2.8648,1.7241,-3.6573,4.4189,-2.8702,12.3458,-9.7687,1.3105
1.412,1.8875,0.9643,-4.7810,1.9521,-1.7473,12.6354,-4.6389,2.1834
1.416,0.8199,2.8477,-5.1564,1.1725,-4.7580,10.8642,-3.2708,2.3022
1.420,3.3154,2.4017,-4.3456,5.1724,-6.0763,7.7099,-0.3878,3.9645
1.424,1.7116,-0.1306,-3.7208,1.5936,-9.1827,8.9846,-1.2862,2.8336
1.428,-0.3227,-1.6886,-3.3224,2.6085,-9.1447,6.3296,2.5945,6.8734
1.432,0.9820,0.7097,-4.4935,2.9507,-6.9679,5.0334,5.5107,6.8923
1.436,1.2673,-0.7235,-4.5031,4.8393,-7.5094,2.9337,4.1737,11.6437
1.440,2.3895,-2.6389,-1.8477,3.9553,-10.8523,2.2219,4.4545,16.0546
1.444,3.6489,-1.1086,-2.8869,2.8738,-8.9377,0.8323,7.6421,16.5588
1.448,5.6419,-2.1904,-7.7170,5.1962,-8.8006,-2.5404,7.0280,17.3177
1.452,7.1687,-1.6555,-3.6789,6.4451,-6.9671,-0.2939,9.6750,15.7505
1.456,9.1577,-0.7026,-3.5609,6.2324,-8.7942,-7.3860,7.7687,16.1982
1.460,13.3451,1.1513,-1.1850,2.1823,-8.8937,-4.9168,7.5593,14.6644
1.464,12.2850,2.3283,-1.3398,2.9235,-9.1856,-7.2604,2.6221,13.4400
1.468,10.1105,4.0240,0.6514,5.2155,-6.8171,-7.0295,-1.3030,10.1914
1.472,10.3858,4.8327,-0.3202,4.7291,-8.0125,-6.8561,-3.2790,9.8812
1.476,9.6979,7.1408,0.0915,2.8710,-3.9025,-5.3030,-3.5427,5.5614
1.480,7.0373,8.7357,3.5180,2.8735,-3.2548,-4.5947,-6.1621,5.8182
1.484,7.8836,12.2722,2.3601,5.6471,0.0184,-3.1069,-5.9009,3.9474
1.488,3.0658,12.9204,5.9942,3.7851,-0.2755,-2.4903,-7.7317,-1.1073
1.492,0.7750,12.5246,4.5686,4.9770,-1.4777,0.8309,-4.9262,-1.5010
1.496,-4.8719,15.5007,3.9044,6.6371,0.0541,3.1597,-6.2989,-0.6556
1.500,-7.0782,13.6728,4.7842,2.9243,0.4745,1.5160,-5.9334,-1.4649
1.504,-6.2732,11.4026,4.6772,0.0103,4.9381,3.7031,-4.5256,2.1859
1.508,-6.3171,10.1432,4.5232,-0.5046,4.4055,3.4782,-3.6632,0.4262
1.512,-5.8115,8.2243,1.4701,-0.2614,5.0797,3.4548,-4.4289,3.4050
1.516,-5.7136,5.1861,3.2207,-1.4808,2.7855,3.5431,-4.9968,2.6467
1.520,-8.6922,5.6611,2.4895,1.2549,1.8437,2.0495,-3.6749,2.9521
1.524,-8.3535,0.9935,3.8262,-1.7223,-0.5377,0.1743,-1.0324,3.9370
1.528,-8.2989,1.7824,1.4373,-1.9868,-1.7112,0.9575,3.2865,6.0736
1.532,-7.2932,-0.9723,4.1254,-5.5831,1.3622,2.4531,6.4503,6.6353
1.536,-4.0221,0.3771,-0.4123,-1.2074,-0.7145,3.5301,9.4217,8.1493
1.540,-5.1238,-2.5664,-0.7476,3.0616,0.1266,4.1687,8.7274,6.2813
1.544,-3.8010,-4.4674,-1.5824,3.5064,0.7996,5.5547,8.8285,6.8268
1.548,-0.8057,-4.8552,-2.4715,1.7433,-0.7313,1.0695,8.7092,10.2344
1.552,0.3049,-5.4554,-4.2430,1.7666,-0.7229,-2.2110,6.6756,10.3008
1.556,2.5906,-5.9557,-7.2851,5.2458,-0.5254,-7.4057,5.7447,8.2559
1.560,1.8172,-4.6313,-6.1225,6.2064,1.5659,-4.9154,4.8234,6.6179
1.564,4.5930,-2.8271,-2.1667,8.8591,0.1225,-6.6501,2.6138,8.5395
1.568,6.9725,-1.0549,-1.0683,9.0736,1.7553,-7.1502,0.5113,6.0626
1.572,5.8318,-1.4799,-0.4181,10.9565,-0.4751,-7.7986,-4.0438,0.5064
1.576,6.4759,-1.2969,-2.3856,7.4851,-0.2640,-8.7503,-6.1863,-6.4793
1.580,6.8770,2.2236,2.2108,6.1829,1.2677,-7.4999,-6.7321,-9.0612
1.584,5.6657,4.3816,1.7210,4.0238,0.0490,-4.2775,-7.1350,-7.9525
1.588,3.8480,5.3417,1.1094,5.1901,1.7922,-3.3694,-8.3056,-12.7123
1.592,-0.0371,5.0719,-0.4468,1.5406,5.1359,-3.2576,-7.5984,-11.9223
1.596,-4.2116,5.3310,-0.2886,3.7803,6.6279,1.9615,-7.3861,-11.6021
1.600,-4.6941,7.1879,0.0651,6.4326,8.2477,-1.2060,-10.1456,-10.5048
1.604,-9.0059,4.5861,0.2799,4.8278,9.2680,-1.3704,-8.1630,-10.9887
1.608,-9.8334,2.5060,-0.4340,4.2728,9.0515,-1.0597,-6.5355,-10.5259
1.612,-9.6739,2.5239,1.6893,1.5448,7.2818,-3.1787,-5.3861,-10.9091
1.616,-8.8699,1.9192,0.5046,0.8864,6.9765,1.7463,-1.1743,-9.4753
1.620,-7.1909,-0.3660,0.1975,-1.7498,3.6519,1.4817,3.5859,-4.4971
1.624,-4.9718,-0.5589,-0.2650,-1.5125,2.8021,1.8059,6.7568,-2.0349
1.628,-1.8202,0.6735,0.3300,1.6776,2.1571,-0.5571,11.2680,-0.3168
1.632,-1.0011,-3.4791,2.4447,-1.6030,-0.5532,1.0877,13.0793,2.1602
1.636,2.4037,-1.5772,-4.7541,1.7995,-1.1972,1.1428,13.9301,5.4040
1.640,0.6900,-2.9149,-4.1971,0.3842,-3.4068,3.2531,17.3541,2.3376
1.644,0.3685,-4.2586,-2.6939,1.8150,-0.2578,2.7496,17.7851,5.4557
1.648,-2.0965,-1.1471,-4.2417,0.9820,0.0013,-1.1408,16.9297,7.1939
1.652,-4.7351,-0.7386,-6.6700,0.9501,-0.2729,-2.9279,15.6681,11.0187
1.656,-4.6555,-1.5588,-1.3633,0.6475,-3.4656,-1.2769,15.0165,9.1717
1.660,-5.7476,-0.0375,-2.9723,4.7079,-3.4317,-4.6398,14.4207,7.7584
1.664,-2.9284,-1.5275,-0.8259,4.0123,-3.0030,-4.2619,15.2677,4.1743
1.668,-0.8899,2.8743,1.3943,7.1303,-3.5574,-7.4191,12.4373,2.9587
1.672,-3.3478,1.2397,4.1352,7.2268,-3.3876,-7.7182,7.1855,-0.0269
1.676,0.2799,4.7503,3.7991,7.1133,-3.1793,-7.3457,5.9664,-2.7918
1.680,-3.0332,3.6914,3.1977,3.7530,-3.1302,-5.8139,5.5531,-3.9104
1.684,-3.7345,2.2355,6.1099,1.7014,-3.8031,-5.3295,-1.2045,-6.0372
1.688,-2.6872,-1.2456,2.1724,0.8701,-3.5125,-3.8617,-4.0228,-9.6385
1.692,-7.4021,-1.2302,3.3581,0.2022,-1.1713,-3.5663,-1.5420,-8.2789
1.696,-5.7923,-2.9129,4.0560,0.4978,3.0198,-2.7027,-6.1917,-10.2980
1.700,-9.0737,-4.1023,2.7239,-0.1802,6.7716,-0.4683,-5.1805,-7.9552
1.704,-10.3427,-7.3918,3.2503,2.3623,2.9111,0.9717,-3.5463,-7.6097
1.708,-11.2775,-3.7449,0.9152,6.4009,2.2655,1.0229,-1.3235,-4.2235
1.712,-11.5724,-6.9758,3.6220,5.5991,5.5449,4.0607,0.3875,-3.2330
1.716,-9.9250,-7.3081,4.5262,6.5656,5.6531,3.8736,1.9603,-1.2239
1.720,-9.4236,-7.9173,1.3759,4.2974,7.2297,6.9901,2.9332,-0.7884
1.724,-6.6806,-4.2967,-1.7483,5.3561,4.9461,8.0202,4.4414,0.7319
1.728,-4.0403,-4.8687,-4.2481,5.5930,3.7594,10.9084,5.4099,2.1471
1.732,-0.8034,-4.2990,-2.5209,3.8871,1.0795,12.3127,4.3534,4.0220
1.736,0.1788,-3.3348,-3.1976,4.8462,-0.0538,11.2812,7.5606,5.3957
1.740,-1.3486,-3.0796,-8.5842,2.7778,-1.0181,9.6272,7.8801,10.9494
1.744,2.7919,-2.0368,-8.4599,1.6386,-1.4953,8.6083,9.0698,12.1759
1.748,2.5723,-1.7230,-5.9977,-0.8112,-0.3323,6.6622,8.1596,13.6390
1.752,3.9768,-1.7757,-5.2910,1.7512,-0.7382,4.2708,6.2003,13.4065
1.756,5.8320,-3.9623,-6.8248,-0.9945,-1.7648,3.9541,5.7580,12.7286
1.760,3.3531,-4.4015,-5.8954,-0.8418,-1.9289,2.5244,3.8348,7.3411
1.764,6.0924,-0.3519,-4.6993,-1.2569,-2.4217,1.7828,-0.5366,5.6624
1.768,7.0964,4.2685,-3.9240,2.9374,1.1617,2.5343,-1.0795,3.9569
1.772,9.7487,4.9280,-4.4644,1.4467,2.3466,1.2328,-6.9640,0.1660
1.776,8.8180,3.3315,-1.9293,3.7630,-1.1510,1.2939,-8.2323,2.2436
1.780,7.4759,3.1833,-2.5405,2.2793,-2.7905,1.5452,-13.9806,1.1198
1.784,9.3693,1.4354,-3.7015,3.2032,-2.3299,-0.8396,-15.0532,-2.3076
1.788,7.6265,0.2568,-5.1992,3.2622,-4.4663,-4.0943,-15.3487,-3.2563
1.792,7.0822,0.6095,-2.6717,1.1720,-1.7917,-5.4904,-15.5883,-3.3784
1.796,4.8255,-0.3726,-2.6704,0.3019,-2.0508,-9.5912,-15.5497,-4.6756
1.800,1.9467,1.2374,-2.7391,-1.7845,-3.4289,-9.1046,-11.2681,-4.1407
1.804,-0.3360,2.0322,-1.1047,-5.0199,-1.0664,-8.3353,-10.9490,-4.7889
1.808,-1.0203,0.6484,2.3293,-4.1435,-0.7444,-2.2629,-9.0520,-6.7292
1.812,-7.2742,-0.7852,0.0789,-5.5335,0.4866,-0.5121,-7.5966,-5.6480
1.816,-7.1587,-4.9309,0.4447,-8.0827,1.2389,0.3206,-4.5425,-2.6033
1.820,-9.4946,-8.2096,0.1145,-6.2998,3.6661,2.3489,-2.5871,-2.4069
1.824,-8.5746,-8.4014,-2.3466,-6.7291,5.0386,5.0207,-1.9588,-0.7790
1.828,-4.2877,-12.0725,-3.7657,-5.5826,1.9403,5.2925,0.0805,2.9499
1.832,-2.7325,-10.7993,-3.6502,-5.2128,-0.1171,4.9903,1.1945,7.8032
1.836,-0.7263,-13.1556,-0.8901,-5.3793,0.2882,5.9686,2.0525,4.1024
1.840,-0.1986,-13.2161,1.7238,-4.4815,-0.5657,4.9056,2.0610,8.5491
1.844,0.5841,-11.4637,2.9792,-3.1037,-0.6342,5.8734,7.4766,9.5981
1.848,0.2762,-8.1287,4.2771,-2.9121,-1.8229,5.1385,7.6322,9.1090
1.852,1.4809,-6.3011,3.0505,-0.3485,-1.5903,5.5846,7.3958,7.1440
1.856,2.8175,-5.5554,2.2442,-4.7890,0.2948,6.3783,5.8021,7.6183
1.860,0.4649,-3.5948,1.3379,-5.1659,1.5191,5.7190,2.9079,5.9060
1.864,2.6324,-0.1780,2.3968,-3.7213,2.2461,4.1217,-3.7848,2.2222
1.868,-1.4901,-3.3832,4.4781,-2.8223,2.5320,4.2970,-8.1453,0.0335
1.872,-0.9549,2.8966,3.8450,-0.7051,3.8183,2.4490,-12.2484,-4.5817
1.876,1.7893,1.5660,2.2332,1.7523,4.2711,-3.7704,-15.0800,-5.6353
1.880,0.4907,0.9273,1.6949,4.0698,5.6905,-5.0208,-12.6915,-10.2200
1.884,3.2146,-0.0421,5.5381,1.7954,6.0119,-10.0313,-14.8510,-10.1611
1.888,3.0544,0.2995,4.8714,2.0515,4.5889,-9.0943,-15.5032,-11.4521
1.892,3.0412,-0.0661,8.6511,0.0094,7.0235,-8.8024,-14.8808,-13.0398
1.896,3.7812,-1.2812,7.8964,0.4062,7.1714,-6.5258,-15.1185,-15.4921
1.900,3.1440,0.3352,8.9770,-1.6735,8.3450,-5.2688,-12.4760,-16.2727
1.904,1.6255,-0.7887,7.2927,-2.3909,9.1449,-1.6852,-11.5589,-14.7932
1.908,1.8363,2.2066,4.9576,-7.6972,7.4692,1.5923,-10.8607,-14.7709
1.912,0.3747,1.0623,5.1922,-8.5523,8.1900,3.7477,-8.8070,-12.9845
1.916,0.8686,1.1811,3.9840,-11.4821,9.2018,6.9220,-6.9310,-10.1258
1.920,2.7377,2.8237,4.9923,-13.9554,7.9622,11.2918,-5.0116,-6.2132
1.924,2.9145,3.8203,2.2559,-13.9703,9.1865,16.1889,-6.5828,-2.6068
1.928,5.8722,1.7504,3.2408,-11.9487,6.9514,16.2788,-5.2518,1.1714
1.932,4.2461,4.5393,1.8503,-8.5532,5.4179,18.4545,-0.3677,4.8807
1.936,5.7402,3.8971,4.4759,-11.1825,1.6560,15.9144,4.8732,8.6337
1.940,8.3126,6.4566,3.6767,-11.4027,-0.8703,14.9818,4.6566,9.9415
1.944,9.0883,7.4013,4.1030,-10.0120,-5.7682,15.9254,2.9474,8.1054
1.948,6.8648,8.5367,0.9569,-8.2141,-7.2361,13.9655,3.1414,8.3573
1.952,6.1305,6.4988,-0.8342,-8.9592,-7.1067,10.2099,2.7118,9.6910
1.956,4.0632,6.8210,-1.5045,-9.9157,-8.2988,7.9647,-2.3778,10.2718
1.960,5.3955,6.6639,-0.7377,-8.2565,-6.3679,6.1354,0.0573,8.0445
1.964,6.1536,7.4874,-0.0976,-9.6975,-7.9587,0.4368,-0.6803,8.1671
1.968,3.6652,8.1455,0.4240,-8.1679,-4.9353,1.5342,-3.7954,8.4310
1.972,-1.2626,9.9702,-1.0040,-5.9526,-6.1285,-2.9946,-4.6627,4.2396
1.976,-6.0821,7.8181,1.6851,-4.3828,-6.3325,-4.5063,-5.3979,3.1723
1.980,-9.5451,6.9091,-1.5233,-2.3343,-8.1570,-6.2680,-4.6025,2.2688
1.984,-5.6586,5.3005,-0.1566,-3.8802,-6.9472,-10.2870,-8.5856,0.4191
1.988,-6.4593,3.6639,-1.2893,-1.7083,-8.3385,-14.2012,-6.5275,-0.9037
1.992,-7.0425,2.7684,0.4440,-3.7457,-8.5753,-12.8586,-5.1225,-2.6610
1.996,-7.6950,-0.2855,2.0425,-5.3146,-7.8165,-11.1081,-3.1845,-1.0334
2.000,-7.9589,-1.8424,1.2176,-6.6482,-7.1708,-16.1412,-2.3683,1.1083
2.004,-9.7788,-2.5499,2.7076,-6.4291,-4.5186,-15.5913,-5.5736,2.0812
2.008,-7.9364,-3.6354,0.6452,-6.3271,-3.9188,-11.2760,-2.8738,1.1369
2.012,-8.9728,-6.2153,3.8505,-6.1947,-2.0133,-8.4081,-1.2478,5.0538
2.016,-7.5092,-4.5956,0.2137,-6.7893,-2.0141,-3.8632,-0.0212,7.8070
2.020,-5.3429,-5.4810,-0.0976,-8.8473,2.6239,-1.7836,4.3444,10.4255
2.024,-4.7118,-2.5252,0.8920,-9.4397,2.6306,-0.4165,8.5117,8.1748
2.028,-4.7429,-4.4415,2.2258,-10.2098,4.1224,-0.3918,11.3343,12.9249
2.032,-2.5074,-5.2192,2.3392,-13.3390,2.7104,-3.2868,10.0850,15.9447
2.036,-1.2875,-6.6633,4.0397,-14.2601,1.8961,-0.7470,13.0270,14.2055
2.040,0.4196,-5.2721,3.6081,-12.2734,3.3806,0.1413,15.8462,12.7220
2.044,-1.7194,-4.8540,3.3745,-10.1319,-0.6919,4.3234,16.2645,12.0227
2.048,3.2053,-3.2784,-1.1919,-7.6551,-0.5003,4.6546,12.9346,10.7442
2.052,3.1243,-6.4331,-1.6840,-7.6733,-0.5976,3.5271,11.9939,7.8226
2.056,5.4073,-4.2378,-4.1693,-3.7804,0.7756,5.8612,10.2478,6.7913
2.060,6.3351,-3.9513,-5.3860,-0.5898,1.5695,7.8811,8.0805,7.8866
2.064,8.2542,-3.3049,-2.6214,0.2696,-0.2566,6.7296,6.3302,4.4783
2.068,7.5936,-2.2214,-0.7249,0.1196,-3.9163,2.4540,2.1757,3.9512
2.072,6.1823,-2.9189,0.2444,-0.8317,-4.5893,4.8254,-1.6225,-1.5150
2.076,6.7225,-2.0904,2.1597,-1.5111,-5.4716,2.5269,-1.7895,-4.8224
2.080,5.0493,-2.1286,3.9106,-0.6586,-4.7304,-3.4203,-3.8313,-8.9855
2.084,2.3626,-5.1129,4.0234,0.8383,-4.0011,-4.6034,-6.6020,-10.2786
2.088,1.0967,-2.0548,5.4599,-2.9858,-1.8277,-7.7034,-10.6729,-9.7706
2.092,0.9937,-0.3441,7.2182,-2.7813,-4.1120,-5.2656,-11.8623,-12.8289
2.096,-0.5127,-1.0265,5.6045,0.7131,-5.5044,-4.6510,-13.5493,-13.1885
2.100,-1.1760,-2.6246,6.5455,0.1581,-3.1634,-2.1778,-11.2388,-16.1644
2.104,0.0281,-2.7239,2.9728,1.0804,-0.7813,0.4898,-12.4389,-17.7039
2.108,1.3470,1.3476,4.8288,-2.8975,-2.3923,-1.7552,-10.3529,-14.3123
2.112,0.3166,-3.2771,3.3886,-0.7229,-2.6510,0.8486,-9.4997,-15.4188
2.116,1.1416,-5.1424,0.7561,-0.9649,0.7657,2.6272,-5.8893,-14.9408
2.120,-2.1473,-6.4718,-1.0394,-2.4109,-1.5858,1.7335,1.5639,-11.9031
2.124,-2.2718,-8.2537,0.7653,-4.2629,1.6138,2.6736,4.5224,-8.3052
2.128,-1.1347,-9.5095,-0.4137,-4.5916,0.6835,4.3593,5.2472,-4.3266
2.132,-3.4493,-7.9871,4.6632,-6.5389,-0.8842,5.2501,8.0667,1.2631
2.136,-2.3746,-7.8454,1.7661,-8.1794,-0.8095,3.4755,8.8563,0.1719
2.140,-1.6346,-7.3753,3.8166,-6.8124,-1.6642,9.0791,8.1686,2.2098
2.144,-3.6470,-5.4289,0.1567,-5.4173,-5.0261,4.7248,7.7142,4.4691
2.148,-3.0133,-3.0002,0.6544,-2.6590,-6.3801,4.3446,11.6920,4.6485
2.152,0.0309,-1.7588,-2.2219,-4.0978,-6.7582,5.3031,10.9172,2.6971
2.156,1.1160,-4.2404,-0.5172,-3.6980,-7.5105,6.0304,11.0367,0.5076
2.160,1.1429,-5.3579,-3.0136,-1.9534,-5.3610,6.1017,10.9119,2.3456
2.164,1.9394,-5.1830,-6.3989,-1.4311,-9.4397,3.1946,11.7578,1.2106
2.168,1.0274,-6.7311,-3.0251,1.0665,-10.2965,3.5408,10.3830,0.2981
2.172,2.7430,-4.1384,-6.5893,0.9134,-10.5933,1.1742,5.6644,-0.1039
2.176,0.2972,-6.2720,-3.5681,2.0453,-10.3005,-0.2341,2.3575,-4.3199
2.180,-1.5419,-4.5248,-3.8126,2.3798,-12.2222,-0.5652,-1.8998,-7.2862
2.184,-4.8458,-5.3619,-3.1934,2.5261,-11.8253,-6.2641,-2.9393,-9.1641
2.188,-6.1027,-8.3807,0.6646,3.2946,-11.4925,-6.7372,-4.1525,-11.4471
2.192,-8.4488,-7.8311,0.9744,0.3824,-8.0387,-7.3976,-7.5250,-12.4584
2.196,-10.0191,-9.6248,-0.6409,-0.4683,-5.4438,-9.1646,-5.6158,-11.3815
2.200,-11.1909,-7.8562,2.7018,0.5555,-5.0202,-10.9426,-6.9469,-12.0925
2.204,-10.2759,-7.2371,3.0053,-1.7056,-4.0143,-11.2400,-6.4397,-9.3092
2.208,-7.0656,-6.8426,5.7221,0.9116,-2.0263,-7.0762,-5.8568,-5.9169
2.212,-6.9764,-7.7980,5.2022,-0.1457,-0.3662,-8.7712,-0.4914,-2.3015
2.216,-4.1638,-8.7581,7.1878,0.1303,2.2401,-9.1375,2.0439,3.1225
2.220,-2.3011,-6.2431,8.1310,-0.2031,4.3025,-2.0488,1.1884,4.9601
2.224,-0.2519,-11.1012,6.7045,-2.4179,1.7595,-1.6270,2.0972,5.3015
2.228,-1.1843,-9.9424,7.5170,-0.7721,3.6559,-0.6236,3.9067,6.0499
2.232,1.7346,-8.7864,2.1681,-6.1814,4.9123,-0.1809,6.1277,7.6053
2.236,3.0820,-5.6685,4.7572,-5.9694,3.8503,2.3668,10.2257,7.0750
2.240,1.7218,-6.9792,2.1384,-8.0861,6.3652,5.2566,9.4688,8.1367
2.244,1.2093,-4.3442,0.7253,-8.1294,5.6561,6.4466,9.0848,8.4706
2.248,0.1787,-4.1867,-0.2954,-10.1694,5.7219,9.7756,10.2307,7.8242
2.252,0.6140,-4.2034,0.2065,-9.6303,3.6482,10.4709,5.0628,4.6444
2.256,2.8544,-3.4909,1.1220,-7.5257,2.2700,12.6602,1.8513,1.2534
2.260,-0.9960,-3.3476,-1.0634,-6.6526,0.2952,11.1943,-2.0342,2.6247
2.264,1.8134,-3.4191,-2.1101,-6.4597,-0.4597,5.6785,-5.6165,-2.9698
2.268,4.7394,-1.7814,-1.4252,-2.5847,-1.2359,8.6086,-9.1244,-5.9002
2.272,3.5464,-1.1264,-2.4978,-1.7562,1.7060,7.6979,-14.6886,-6.4711
2.276,4.9643,-0.9268,-4.3701,-0.8983,-0.5793,4.4085,-17.0295,-7.0169
2.280,-1.5884,-3.3465,-7.3840,-3.7808,-0.4359,6.1730,-18.9511,-6.8441
2.284,-4.2294,-3.5242,-9.2470,-6.0456,-2.9474,1.7101,-22.5491,-8.3348
2.288,-3.8265,-2.9764,-7.8983,-2.2114,-0.9204,0.5317,-26.3697,-7.3454
2.292,-8.0731,-2.6741,-6.6463,-5.6648,-1.1525,-3.6223,-26.8948,-8.1199
2.296,-6.9988,-3.7571,-6.5673,-5.0967,-0.3806,-5.1135,-27.9033,-11.1596
2.300,-4.6706,-0.7022,-5.9346,-6.4703,-1.4527,-3.6611,-25.4661,-7.2162
2.304,-5.3379,0.1759,-4.1695,-9.0442,-1.0355,-6.8214,-24.1097,-7.7747
2.308,-6.2109,1.2332,-4.9070,-7.2359,-0.4343,-8.9459,-21.5841,-6.7268
2.312,-5.0100,-0.8867,-0.9869,-6.2336,1.3009,-11.2782,-20.6826,-5.8415
2.316,-2.3390,-2.9109,-0.0317,-7.5531,1.5525,-9.5328,-16.1857,-3.3747
2.320,-1.3443,-1.5883,-3.0828,-6.0560,1.2897,-7.6373,-16.1478,1.1334
2.324,2.5015,-4.6826,-1.9261,-4.9765,5.6898,-7.9083,-12.5151,5.9583
2.328,3.1586,-4.9721,0.6059,-5.3966,3.9842,-6.7612,-7.9216,4.0720
2.332,1.0119,-0.5034,-1.0714,-5.5671,2.2169,-4.1461,-3.1259,9.6548
2.336,-1.6254,-2.8627,-4.1181,-2.6161,1.4489,-1.8600,2.1899,9.2956
2.340,-1.8542,-3.0441,-3.7968,-3.4050,1.9538,1.9541,2.9085,9.4862
2.344,-2.7184,-4.2365,-2.8853,-2.2545,2.4400,5.9497,4.9252,12.6810
2.348,-2.6460,-6.1300,-1.1598,-2.4987,3.7769,4.3745,3.8051,11.3692
2.352,-2.7643,-6.3361,-2.3080,-1.6215,3.0857,5.7800,6.1418,9.9535
2.356,-4.3909,-3.8710,-0.4133,-1.7010,1.1094,6.1793,7.3038,13.0955
2.360,-4.6197,-4.5427,0.1930,-3.5983,2.8627,2.1927,3.7510,10.9619
2.364,-6.7735,-2.7094,4.6513,-1.7069,1.3927,1.7327,3.9286,11.0178
2.368,-6.0134,-3.5177,2.0951,-3.2568,-0.0295,0.8354,-0.6912,7.9445
2.372,-4.7740,0.9612,1.6019,-2.3573,-1.4456,0.6578,-1.2056,4.1344
2.376,-6.5818,1.4096,1.9889,-2.1705,0.7717,-2.8496,-2.8743,2.0497
2.380,-7.0886,-0.3968,0.3588,-0.1403,-0.8632,-3.9304,-4.7086,-1.1094
2.384,-4.1475,-1.3667,-0.5409,-2.8159,-2.7100,-6.3083,-5.2948,-3.9087
2.388,-3.4669,-0.4890,-2.4978,-1.1227,-0.0650,-4.1358,-9.5703,-7.7727
2.392,-8.6217,1.3739,0.8650,-1.6484,-1.1944,-1.1968,-9.4005,-7.8740
2.396,-6.7060,2.8981,3.3903,-0.7957,-3.4147,-2.2576,-11.5223,-5.8621
2.400,-7.4030,4.5875,6.3532,-2.1083,-5.3983,-0.6744,-10.3813,-9.6685
2.404,-6.0024,1.0697,5.6116,-1.1974,-8.1292,-5.8938,-11.0966,-8.1705
2.408,-8.0515,0.1334,6.2450,-2.3739,-7.5528,-3.5117,-7.8399,-6.3822
2.412,-6.4268,-1.3807,5.8995,-3.2090,-5.2430,-3.1825,-8.0901,-1.7413
2.416,-4.5645,-5.4257,7.4640,-2.6723,-2.6212,-2.5833,-6.4335,1.9477
2.420,-5.1771,-6.7522,4.9047,-0.4453,-1.1080,-1.6998,-2.7277,1.1710
2.424,-1.2550,-7.3061,3.3010,0.5700,-2.1413,-0.2345,3.0256,6.6891
2.428,-0.2248,-7.4259,8.9276,-2.1634,0.5146,1.8630,7.3125,9.5617
2.432,0.5172,-6.8911,5.0483,-1.3384,3.9431,2.8250,11.5296,10.0385
2.436,5.3629,-6.2856,4.8820,-3.4078,2.6571,0.9047,11.4870,9.6942
2.440,4.9924,-1.5211,5.0213,-4.7422,4.4263,1.9129,9.8976,11.3900
2.444,5.5892,-3.0634,6.5119,-3.2297,3.6406,1.4026,8.7042,13.6487
2.448,4.2270,-2.3117,4.5139,-2.1670,0.9186,3.2629,7.9747,14.4360
2.452,2.2224,3.5499,5.9008,-2.2553,-1.0862,5.0888,9.1913,12.0657
2.456,3.3401,4.2267,1.7498,0.6557,0.8489,3.3312,8.7122,7.7203
2.460,-0.9751,-0.5148,-1.7429,0.0116,-1.8977,3.0759,5.6608,3.2681
2.464,-0.4698,-1.4166,-1.3371,0.5380,-3.5110,1.0095,3.3295,5.1495
2.468,0.3977,-1.4834,-1.1053,-0.9618,-1.1627,-0.7047,0.1321,2.6346
2.472,-2.0741,4.2844,-4.7765,4.1981,-3.1107,-1.9590,-0.4192,-1.0810
2.476,-6.8231,4.7816,-5.2832,3.6012,-1.3810,-3.8030,-6.3368,-6.6065
2.480,-4.8782,3.1423,-7.9587,4.2679,-2.7854,-2.4559,-10.1350,-13.4484
2.484,-1.1624,3.9911,-8.9293,5.9833,-4.3506,-4.5911,-12.7377,-11.9097
2.488,-2.7768,4.2597,-8.7823,8.6716,-7.3570,-4.5332,-15.5679,-14.9283
2.492,-5.2420,4.0392,-5.1973,8.5140,-6.3063,-3.7554,-18.6996,-15.4832
2.496,-4.5353,4.5142,-4.5509,9.0931,-8.6231,-5.3628,-22.3371,-14.9934
2.500,-5.1261,8.0539,-5.2603,8.0130,-9.7026,-7.7242,-21.1259,-16.0589
2.504,-6.9367,7.1799,-3.6066,7.3533,-8.3996,-6.4436,-20.4238,-14.2424
2.508,-7.0813,9.0406,-3.0553,2.8612,-9.4022,-5.5180,-17.7975,-10.7596
2.512,-6.3226,5.1956,-4.4405,0.1179,-9.2939,-10.5143,-17.7101,-5.5502
2.516,-4.3777,1.0506,-2.8749,1.3944,-7.9994,-7.1201,-12.8353,-1.5717
2.520,-6.3449,-1.0172,-4.2961,-0.9099,-5.7555,-8.6722,-9.5561,4.2202
2.524,-3.9459,-3.2717,-2.9987,0.5135,-1.8171,-7.6564,-1.9838,8.3512
2.528,-0.5294,-3.3948,-3.2987,1.1296,0.1830,-3.6465,0.0703,8.0990
2.532,1.2309,-3.4028,-5.2508,0.3503,2.2415,-2.0172,1.8242,11.8613
2.536,-0.0060,-1.6055,-2.7935,-0.3704,3.1094,-2.9321,3.9897,9.4542
2.540,1.4981,-2.7512,-2.3341,-0.6731,4.0214,-1.6753,5.6591,8.2403
2.544,2.7056,-2.6507,-0.2980,-2.7821,1.7139,0.5901,5.2674,12.0612
2.548,0.1438,-3.7813,-0.0559,-3.4250,3.6776,2.3360,6.4119,7.7305
2.552,0.3983,-2.8532,-0.6287,-3.3046,2.4387,3.7167,6.1862,7.6316
2.556,-0.8488,-4.0967,-2.6632,-4.2203,3.1599,3.8701,7.1047,11.3038
2.560,0.2409,-1.8547,-0.6912,-6.9837,1.9813,3.0538,4.7136,9.1117
2.564,-1.6972,-3.1297,-0.0481,-2.7347,3.1510,3.7948,3.2695,6.8775
2.568,-1.0720,-0.7746,-2.4944,-5.3137,5.2252,5.2710,0.4082,4.3737
2.572,-1.8804,2.4358,-3.6002,-5.7608,5.8379,5.0629,-1.3861,1.1957
2.576,-2.0463,2.8216,-7.0995,-5.9075,4.5968,6.8085,-2.2007,-3.9139
2.580,-2.6246,5.4618,-4.8031,-7.3178,5.0878,2.5581,-7.2778,-6.0658
2.584,-2.5709,6.1672,-2.9502,-5.7627,5.7176,2.0916,-10.9088,-7.0388
2.588,-2.6877,10.1570,-3.1618,-7.2594,4.3633,3.5377,-11.8872,-10.8550
2.592,1.3404,10.3816,-3.3871,-5.3114,3.2048,2.9830,-8.8305,-11.8427
2.596,1.7085,12.2058,-2.1858,-4.4873,1.5956,-1.2819,-10.1278,-9.9689
2.600,0.1241,8.6715,-0.6385,-2.6371,-0.4261,-1.8544,-7.1328,-13.5793
2.604,2.6579,5.9604,-2.7592,-1.2843,1.4341,-1.2452,-7.9166,-11.1321
2.608,-0.0833,1.9203,-4.2838,-0.7936,1.6362,-4.3584,-3.3035,-8.3826
2.612,1.4587,2.2266,-4.4224,-0.6616,-0.0099,-8.5821,-3.0581,-7.5859
2.616,2.9359,-0.3818,-3.1586,-1.9928,2.1807,-9.9881,-2.4240,-5.5478
2.620,0.2279,0.7621,-3.3051,-2.9056,2.4088,-12.6622,0.1533,-0.5577
2.624,-2.1941,0.8087,-2.5687,-2.0620,4.5900,-9.4756,0.5461,2.7292
2.628,-1.7261,1.5751,-1.1472,-3.0910,5.9671,-7.3842,2.7053,5.9623
2.632,-1.8400,0.0368,-0.4481,-6.0542,6.4082,-7.0847,6.3554,6.1148
2.636,-3.6126,-1.4145,-1.5145,-7.4635,5.4002,-8.9159,9.9020,7.1646
2.640,-2.0014,-0.9579,-1.8224,-6.0737,6.5519,-5.6907,12.3396,7.5922
2.644,-1.1884,-1.0033,-4.7814,-5.8344,4.6752,-5.8017,10.8005,5.8074
2.648,-1.7103,-3.4388,-1.8481,-4.0480,4.2035,-2.2854,7.0110,5.0181
2.652,-3.5515,2.2412,-6.2675,0.2638,4.4923,-3.6995,8.1337,4.9663
2.656,-2.7195,1.5934,-0.5221,-0.3781,4.7747,-3.4470,8.1663,4.5779
2.660,-4.8518,-2.5146,-1.3436,2.1913,4.1302,-1.4511,7.4453,4.7406
2.664,-2.8676,-0.2456,-1.9259,1.6498,3.4063,-1.0300,2.1248,5.1584
2.668,-3.7129,2.9500,-2.7036,0.9238,1.2323,-0.7276,-0.7072,2.9724
2.672,-4.9560,0.4937,-6.3144,1.3380,0.5181,2.3578,-0.6911,1.6294
2.676,-4.9605,3.2068,-3.9880,3.2572,-1.8150,5.8993,-5.1855,-2.6111
2.680,-6.1128,4.1581,-5.1286,0.8708,-3.6265,6.6944,-9.8244,-4.5840
2.684,-7.1963,5.0564,-5.4762,3.7771,-4.9380,3.3782,-7.1547,-4.0007
2.688,-3.8427,4.9211,-6.0100,2.0855,-5.5607,2.5400,-11.0543,-5.6094
2.692,-3.8814,6.8304,-4.3723,3.6804,-5.5666,-0.8367,-11.8859,-6.9399
2.696,-4.0402,5.8545,-6.5180,1.9299,-5.6536,-1.9495,-12.3873,-5.3542
2.700,-4.3672,5.0575,-7.1054,0.6054,-9.5803,-6.1759,-12.0146,-7.0185
2.704,0.2285,2.1722,-5.7619,1.4253,-10.6570,-7.3454,-11.4780,-6.1918
2.708,0.8893,2.6044,-7.0560,1.7004,-9.8605,-10.5673,-9.8490,-1.6631
2.712,2.3360,-0.9160,-6.2095,-1.1576,-6.7146,-12.1709,-7.8331,3.0367
2.716,1.8542,0.0375,-2.9972,-2.0567,-7.4786,-6.4437,-4.8521,4.1992
2.720,2.8194,-0.9778,-4.6238,-6.6532,-3.3904,-9.2944,-1.1938,3.0759
2.724,3.4599,-3.6802,-2.7343,-4.7480,-1.0729,-10.2396,3.1528,4.7179
2.728,3.8114,-4.1052,1.4528,-4.7642,1.1816,-12.2201,8.1143,1.8307
2.732,0.0422,-3.2088,-0.6903,-8.0034,2.5304,-10.8922,10.3060,6.4631
2.736,0.6117,-4.3770,0.1164,-9.9919,5.5137,-11.7673,11.8689,8.5425
2.740,-1.3142,-3.3814,2.0380,-11.6716,5.2263,-11.1286,16.7434,4.5586
2.744,-3.0712,-4.3523,0.6689,-9.9561,8.5384,-11.6561,16.8256,5.3795
2.748,-4.7419,-3.1159,-0.7706,-7.7222,9.7591,-8.2536,16.7998,4.4204
2.752,-5.0546,-1.7795,0.3192,-5.5392,10.3036,-8.9324,17.6740,3.1082
2.756,-3.9773,-5.9446,-1.5005,-6.0227,10.6921,-10.5665,14.3316,5.9912
2.760,-2.1397,-6.3729,-2.6427,-8.5070,13.7706,-8.6916,15.2655,2.6895
2.764,-4.3800,-3.5745,-1.7384,-5.5906,9.6463,-6.9415,11.2993,2.4412
2.768,-4.4731,1.0445,0.2881,-2.1011,9.4696,-2.2641,10.6942,-1.4507
2.772,-6.2135,4.7353,1.2752,-1.0475,7.6060,-0.8266,5.4463,-4.5209
2.776,-3.8059,5.6938,-0.5119,3.0833,8.8199,1.1617,0.9737,-1.9727
2.780,-6.8978,5.8840,-2.8145,1.6621,7.0209,-1.7693,-0.1444,-1.5305
2.784,-8.8156,8.8084,-2.3061,-1.5932,9.3810,-0.6613,-2.5752,-2.3956
2.788,-6.7713,11.7518,-2.3201,-1.7690,8.8901,-1.5522,-4.9282,-7.2020
2.792,-7.0651,10.4253,-3.9161,-0.0323,7.1071,-1.8993,-6.9304,-6.2146
2.796,-3.2690,10.7676,-5.3236,-1.6875,6.8436,-2.6311,-8.5374,-6.2095
2.800,-2.8421,10.3054,-4.7100,-3.6207,4.6310,-3.1397,-11.2865,-4.1178
2.804,-0.4845,8.5432,-7.9172,-4.9242,4.7334,-2.7205,-10.2221,-2.9235
2.808,0.2241,6.3148,-9.0306,-4.5585,3.0721,-2.6092,-9.2547,-2.6065
2.812,0.1861,5.2490,-4.8249,-2.0266,3.6707,-1.0506,-7.7886,-0.3927
2.816,0.5275,3.0082,-2.5123,-1.7554,1.9781,-5.6890,-4.6132,2.6292
2.820,0.6870,0.9782,-2.3369,-0.8327,1.1836,-2.9110,-5.1807,3.2759
2.824,-2.5629,-1.8172,-2.1660,-0.1817,0.3551,-4.5845,-2.6736,3.6777
2.828,-2.0232,-3.0322,-0.6074,1.5859,0.6092,-5.5032,0.5139,9.2100
2.832,-1.6219,-4.5442,-1.5634,-1.1101,1.2541,-9.1396,3.3124,6.4802
2.836,-4.0026,-4.0462,-4.3611,-0.9158,6.0444,-10.0226,4.8859,8.0163
2.840,-6.2935,-1.2972,-3.7779,-3.8667,4.6439,-9.5435,10.8739,6.5381
2.844,-4.9717,-2.2683,-1.9247,-4.8788,4.6148,-7.7555,6.0815,10.0332
2.848,-8.6859,-2.6521,1.3446,-4.4714,5.2709,-8.4841,3.8324,11.8416
2.852,-8.6769,-4.5741,-1.1195,-3.4576,5.0287,-9.1621,3.5193,12.3711
2.856,-10.5451,-1.6872,-1.9865,-4.7280,5.3688,-7.6840,0.2920,7.9336
2.860,-9.6189,-0.1599,-0.7460,-6.3370,6.3701,-6.5109,-0.9259,8.1736
2.864,-8.5137,-0.1248,1.0771,-6.8702,6.2165,-7.6929,-4.4977,5.7784
2.868,-9.2535,0.6187,2.3715,-6.6671,5.8149,-6.7707,-4.6025,0.5058
2.872,-10.5184,1.0391,1.0531,-3.2170,6.7575,-6.9603,-7.9365,-1.8154
2.876,-11.6554,2.6273,2.5940,-3.0045,6.8418,-4.5060,-6.4960,-5.5405
2.880,-11.0093,2.2178,-0.9791,-3.5705,4.9420,-2.7894,-9.7332,-6.5425
2.884,-11.4619,2.1381,-0.5972,1.7560,5.1864,-7.2953,-11.6299,-6.6977
2.888,-10.2804,3.1647,-0.0548,1.8785,4.2446,-6.4130,-12.9186,-9.0100
2.892,-10.0919,2.0406,0.4046,4.4512,4.8947,-8.4722,-15.4173,-8.0501
2.896,-8.8780,4.8982,-1.4797,4.4226,5.6412,-7.4909,-16.9536,-7.2738
2.900,-7.2918,6.3544,-0.2177,3.0754,5.8124,-5.4427,-13.4900,-9.3739
2.904,-4.5454,7.2100,0.2634,2.5227,1.7834,-6.1222,-12.0332,-6.2313
2.908,-0.9693,7.7253,2.7979,4.8802,0.5587,-5.5326,-12.2454,-3.9045
2.912,-0.9286,6.9940,1.4529,2.5081,-0.6679,-7.4637,-8.8456,-0.5774
2.916,-2.0642,5.2481,5.8803,1.4354,-0.2084,-5.5950,-4.2700,-0.1165
2.920,-0.1664,4.9936,8.1313,-0.8403,-0.5206,-6.8756,-5.9575,4.2011
2.924,2.6153,3.5499,7.9302,1.4405,-0.1456,-6.3852,-2.6782,3.0903
2.928,2.8700,-1.7243,7.2237,1.8489,-0.3281,-8.4778,-0.3150,4.8262
2.932,1.3230,1.1513,11.0303,3.3469,1.8879,-9.7205,5.7763,5.0389
2.936,0.0739,-1.3597,12.9793,3.0228,5.4079,-11.4519,6.8360,7.7969
2.940,0.1889,-1.7421,10.0501,-1.5321,4.6514,-11.0268,5.0875,8.9402
2.944,2.1822,-3.1721,10.8618,-3.5253,5.4363,-9.5516,9.1599,10.7919
2.948,0.8417,-2.5246,9.3420,-0.4670,8.7737,-10.5976,8.2387,9.4730
2.952,1.5467,-0.6794,10.5902,-0.5356,8.8230,-10.5124,8.0318,7.6391
2.956,-0.9976,-0.3094,13.5081,0.6316,9.6107,-5.1877,8.3657,6.6504
2.960,-1.8561,3.5359,14.3324,-0.0858,8.8737,-4.1380,4.3875,5.2312
2.964,-1.8468,5.0082,14.1363,-1.4634,7.8830,-1.9127,3.6968,5.6359
2.968,-3.3363,9.8135,13.4840,0.8061,8.4789,3.3398,-1.8841,7.1896
2.972,0.9294,9.9239,10.1993,-0.0595,3.7291,1.9715,-2.7590,3.6992
2.976,1.9153,10.7865,7.9766,3.9970,2.1760,3.4500,-6.4702,0.7092
2.980,3.2966,9.2146,4.7184,2.3789,2.9157,6.9992,-12.0394,-2.9909
2.984,1.8890,9.2870,4.6833,3.9108,4.2486,6.6411,-14.1462,-4.9469
2.988,1.4053,7.8317,0.8278,3.9527,2.7888,7.6040,-15.8155,-4.2786
2.992,2.4324,4.9880,1.1439,1.5283,1.4897,9.5059,-21.7451,-5.0948
2.996,2.6422,4.5308,1.5139,3.1379,1.8285,7.7715,-21.3775,-6.9966
3.000,2.5892,1.8482,3.1861,5.5731,-2.8028,9.8466,-19.8642,-2.1789
3.004,4.8719,-2.0025,3.7713,6.2195,-4.4185,7.6146,-17.2611,-2.4224
3.008,5.8598,-3.9479,2.9286,5.3476,-2.6672,4.4824,-16.2017,1.6240
3.012,7.2648,-6.0505,5.3717,7.6173,-6.9810,3.1903,-16.9003,0.6638
3.016,8.1189,-6.5902,4.1375,7.9259,-8.5441,-0.5585,-13.1078,3.3118
3.020,6.4020,-10.4136,5.2146,6.3591,-7.9502,-2.1368,-13.0281,3.2794
3.024,7.6620,-12.5168,6.7198,5.2693,-11.1359,-5.1714,-12.3776,5.8221
3.028,4.8294,-12.2785,5.4889,4.8477,-9.5167,-8.7161,-7.3821,9.6054
3.032,3.3270,-15.1365,0.5065,2.4467,-8.1794,-12.3641,-3.8478,9.3434
3.036,5.3922,-12.6312,3.3746,1.9151,-6.4326,-10.6995,-1.2181,13.4331
3.040,6.0379,-10.4971,4.3870,1.2180,-7.0690,-8.9063,-0.4632,14.5671
3.044,5.9702,-9.5131,4.9310,2.2461,-6.3209,-9.0898,0.9991,16.9228
3.048,6.1978,-6.5434,8.7020,1.6635,-4.2166,-9.5725,5.7391,13.6070
3.052,4.4386,-3.5897,10.8911,-0.1341,-1.9849,-10.2770,4.7775,12.1715
3.056,3.3341,-4.6208,10.1078,4.8440,1.7409,-8.9817,6.5729,8.3536
3.060,1.3903,-1.6892,8.7348,4.7550,1.0784,-10.4441,4.2459,6.3360
3.064,-1.1021,1.2190,8.3506,5.5119,3.0958,-5.7803,1.3265,3.6336
3.068,-0.0037,2.5135,7.2455,5.8936,2.2727,-6.1315,-1.1069,0.7529
3.072,1.3120,1.8824,8.9691,2.5389,1.0485,-4.3443,-5.4431,-3.3851
3.076,0.0746,3.5916,5.6535,3.5013,3.9417,-4.8456,-6.1919,-3.2648
3.080,0.9018,1.8290,5.6049,5.2553,3.2140,-2.1312,-11.8172,-5.3644
3.084,1.1832,-0.3799,7.9438,-0.1519,4.0899,-2.8498,-10.8894,-5.7044
3.088,4.1352,-2.2268,7.3829,3.2924,4.1238,-0.3610,-12.3812,-7.8475
3.092,5.9247,-3.5877,9.7983,3.7220,6.6910,0.7377,-13.9208,-7.9460
3.096,6.9618,-1.7164,8.4829,3.3575,5.6241,4.0096,-12.8173,-9.4051
3.100,7.6186,-1.7337,10.3013,3.9323,5.2228,5.6234,-10.2187,-9.1165
3.104,6.4477,-3.2239,8.6646,8.1432,3.2818,5.2416,-9.7197,-11.2288
3.108,7.9434,-4.9560,10.2491,1.1736,0.4190,8.1931,-8.2119,-8.0837
3.112,5.9094,-3.7178,8.1246,2.3343,-0.2458,8.2876,-7.7297,-4.1316
3.116,7.2917,-5.1526,4.6722,2.6088,-1.9201,7.5675,-5.1608,-2.8567
3.120,6.5308,-8.9219,2.2849,3.3948,-6.9531,6.0999,-3.7980,-3.3367
3.124,7.0299,-12.9311,2.7056,3.5159,-6.8457,8.0787,1.7520,-0.8391
3.128,6.6625,-11.6565,2.5183,3.3842,-8.7485,5.5617,2.6359,2.6631
3.132,7.7928,-9.7060,2.9684,-0.1646,-12.5847,1.0437,7.6788,2.5322
3.136,5.4906,-13.0795,4.1197,-1.6853,-14.6101,-1.1245,9.5487,5.1219
3.140,3.4264,-10.5482,4.0603,-2.9940,-13.8312,0.1924,13.6196,7.2537
3.144,4.1523,-9.9460,6.0553,-3.7727,-12.3894,1.0702,15.1970,8.8631
3.148,3.7194,-13.6423,5.0695,-3.9282,-12.9072,-0.1074,13.1762,6.6677
3.152,2.9303,-13.6425,3.8112,-6.5460,-10.1508,2.2157,14.7438,11.6817
3.156,1.0760,-13.2498,5.2269,-6.7693,-9.4047,6.3080,15.1385,9.1761
3.160,-0.4992,-11.4944,3.9892,-8.0409,-8.8223,3.5538,11.1004,7.5247
3.164,-4.5199,-8.1572,6.2360,-6.9512,-6.5649,-1.9813,9.2030,4.2590
3.168,-3.8148,-4.2576,3.5666,-7.3959,-5.7533,1.3932,7.7233,4.0881
3.172,-3.6953,-5.1675,5.1145,-11.2587,-5.2882,2.2901,5.7131,2.6811
3.176,-3.1302,-3.2973,3.5823,-10.7078,-5.6708,-1.2129,3.1823,-0.9802
3.180,0.3545,-6.7311,2.7314,-10.5065,-4.5235,2.7661,0.0996,-2.8993
3.184,-0.7062,-8.1672,0.6878,-9.7321,-5.2404,2.8163,-2.3676,-4.6427
3.188,0.0290,-6.5805,-2.7162,-6.9685,-6.7896,3.4817,-5.2480,-7.8955
3.192,-0.6082,-6.0516,-0.3214,-6.8258,-8.2135,2.4967,-8.9865,-7.4906
3.196,0.5708,-9.2271,-3.1987,-6.1898,-9.3300,3.8227,-11.7458,-4.9712
3.200,-0.5125,-7.5992,-3.6958,-6.4618,-5.9558,3.3449,-11.1652,-5.8137
3.204,-0.1097,-10.3146,-7.0959,-2.8367,-6.0722,3.3179,-6.6815,-4.4854
3.208,0.7692,-11.6183,-8.8681,-0.5774,-7.2283,0.6300,-9.4119,-2.2655
3.212,-1.4190,-7.5103,-11.2568,-0.2526,-8.1402,-0.9726,-7.7563,0.3123
3.216,-2.1261,-7.2627,-9.3194,-0.9147,-12.0752,-1.7189,-3.1047,0.7519
3.220,-0.7682,-5.6444,-6.1904,0.7110,-10.2018,-4.7742,-2.0686,0.4421
3.224,-1.0412,-7.2647,-3.5898,-0.2311,-12.8423,-6.4539,-1.4236,2.2917
3.228,-2.6988,-9.6044,-0.3446,1.6000,-16.6653,-7.6471,3.9298,1.9654
3.232,1.5774,-6.6422,0.4399,-0.7686,-15.7651,-8.5535,8.6188,2.9344
3.236,-0.8108,-6.3383,2.7294,-0.6533,-13.7087,-8.2405,10.9720,4.2346
3.240,-1.1273,-7.3308,3.5264,-4.3779,-11.8190,-7.8411,12.5541,5.6643
3.244,-0.0171,-6.1626,4.1986,-5.6015,-10.4709,-6.7108,13.5786,5.7968
3.248,-3.3453,-6.1718,2.8534,-5.6032,-9.9184,-7.0148,8.9522,6.1278
3.252,-4.6609,-8.6571,5.4286,-5.3722,-6.2111,-8.5263,8.7258,0.9429
3.256,-8.6484,-3.9284,6.9197,-2.3890,-6.1188,-10.6012,7.4350,-2.6381
3.260,-8.1886,-0.5111,11.5340,-2.0019,-5.2685,-14.7132,6.4199,-2.6885
3.264,-9.0635,-0.0877,10.4817,1.7414,-0.9218,-14.5789,6.7179,-4.7552
3.268,-8.8301,3.8233,8.7658,0.3998,0.2103,-13.3547,7.3473,-7.8653
3.272,-7.6098,4.5813,9.6011,-1.9357,-0.2517,-13.3374,5.1519,-7.8495
3.276,-8.8587,3.4397,9.5087,-0.1971,1.7268,-10.0024,4.1063,-7.4367
3.280,-8.4512,1.1081,10.1952,-1.5594,3.0164,-8.9867,2.8091,-13.1920
3.284,-1.8484,4.3526,12.0325,-4.0932,1.8662,-6.9031,-1.9108,-14.2543
3.288,-1.4017,3.9796,14.7917,-4.7672,2.3006,-3.8927,-3.9452,-12.9882
3.292,-0.4131,5.5976,15.5295,-5.2124,2.8953,0.9556,-5.9048,-12.9958
3.296,0.0913,9.7035,10.0049,-4.7276,5.2477,3.5704,-8.6901,-11.6953
3.300,-0.7275,6.0764,9.2371,-7.2535,4.8805,4.5156,-9.1898,-10.1356
3.304,0.8403,2.4991,5.4485,-7.8724,3.2281,4.0730,-8.4019,-5.3534
3.308,2.1463,-2.1159,5.9141,-6.6424,5.0906,2.8729,-4.8297,-5.3731
3.312,3.2356,-0.8457,3.5071,-3.8447,5.6375,5.9992,-4.0613,-6.3968
3.316,4.6437,-1.4543,4.3687,-6.4094,7.0888,5.3284,-0.2940,-3.2035
3.320,5.9978,-3.4567,3.7983,-5.6241,4.6147,1.2794,2.4998,0.4124
3.324,4.1040,-5.5592,4.6767,-4.9584,1.0203,0.5570,3.4008,-0.3338
3.328,4.4350,-6.3130,5.5401,-3.0268,-0.4941,-1.0310,5.2162,0.1375
3.332,3.8395,-5.8055,3.8971,-4.2448,-0.8040,0.1202,10.3658,6.1862
3.336,2.1700,-5.4552,2.9966,-5.9854,-0.4713,-2.4550,11.2760,6.8264
3.340,4.0802,-6.8601,1.3257,-6.9649,-0.6343,-2.5775,12.5333,8.9907
3.344,5.3379,-3.6972,2.9870,-7.3760,2.3719,-3.2048,12.9988,9.7401
3.348,6.8525,-3.4582,4.3131,-10.4446,3.2013,-2.6309,9.5012,8.9786
3.352,3.7808,-1.4263,1.2632,-12.2518,1.8651,-2.4829,8.3956,9.1843
3.356,3.2399,1.9487,-0.8400,-12.6714,4.1669,-5.7301,6.3851,6.5288
3.360,2.6389,2.3477,0.1418,-13.0956,4.2308,-9.7673,5.9311,1.5642
3.364,0.1366,5.0385,-0.2656,-13.9358,4.1293,-9.8672,4.4852,-0.5560
3.368,1.0202,5.8673,1.4666,-11.0860,5.0919,-9.8846,3.0718,-2.3726
3.372,-1.6111,7.6552,4.2708,-9.9115,4.0979,-7.7839,-2.9788,-1.4429
3.376,-1.3956,8.4629,4.5212,-8.3909,6.3338,-6.3633,-7.5970,-5.2044
3.380,-2.7316,9.2557,2.6167,-9.0340,6.1212,-5.2419,-14.6169,-6.0364
3.384,-1.6502,6.2325,1.5135,-7.9001,7.0845,-2.8282,-15.7190,-7.6538
3.388,3.0153,9.6069,0.4730,-6.2120,5.9320,-2.7461,-20.0315,-7.0346
3.392,1.9962,8.5789,-1.5790,-2.0213,8.9352,1.1182,-20.8502,-4.2380
3.396,2.7986,8.5604,-2.1456,-3.1379,7.9532,4.4487,-20.0900,-5.3477
3.400,2.2246,10.1070,-3.1917,-1.6362,7.0157,2.2743,-19.1643,-3.2735
3.404,2.0284,7.9813,-4.2814,-1.4566,4.6090,4.2134,-17.6406,-2.8128
3.408,3.8241,5.3562,-4.4260,-4.3757,5.7784,3.9242,-15.2534,-1.6649
3.412,3.2626,6.2816,-4.9792,-3.1311,4.9332,3.7368,-13.0888,-0.8015
3.416,2.9175,5.0366,-1.3595,-5.3812,2.6553,1.8476,-8.8774,-1.1172
3.420,3.3728,2.5183,-0.1303,-6.6652,4.2391,1.5982,-6.2265,2.2181
3.424,0.4579,-1.4726,-0.5311,-4.4949,2.1955,1.1683,-1.9175,2.9836
3.428,-0.7743,-0.7849,2.7542,-4.0645,0.6229,-0.1451,-2.1368,5.3351
3.432,-1.5263,1.8254,-0.8592,-3.3086,1.8080,-2.1921,8.9214,5.5065
3.436,-3.0335,-2.4966,2.4650,-4.7382,1.6654,-3.1304,11.9779,8.0366
3.440,-1.7124,4.2484,2.2994,-0.5670,-1.5788,-4.5472,14.8578,7.8116
3.444,-3.6934,4.2743,5.9326,-3.6433,-0.9998,-4.9487,20.0036,7.9025
3.448,-1.9545,4.4290,3.3093,-3.6484,-1.4997,-8.1407,22.2066,8.1741
3.452,-0.4912,5.0517,4.8711,-3.6136,-2.7650,-13.5212,23.8875,5.1758
3.456,-3.7889,6.7280,4.3539,-3.5930,-1.3287,-11.2583,20.6559,-1.8440
3.460,-5.0042,6.0451,5.6112,-4.0157,0.2296,-9.3249,18.8404,-5.1795
3.464,-6.7604,5.6671,9.1483,-3.9856,0.1087,-15.3853,19.2954,-6.6411
3.468,-5.7152,4.7835,9.5567,-3.8500,1.5569,-12.5027,14.5626,-9.8368
3.472,-5.2655,6.5202,8.1750,-6.7128,0.6631,-9.6875,11.6247,-10.4935
3.476,-3.6051,2.8184,8.0442,-6.0056,2.5957,-6.7345,8.4229,-12.6566
3.480,-6.1437,4.2267,8.8001,-4.6905,1.8906,-2.3597,3.1785,-12.3148
3.484,-2.9821,1.9933,9.7021,-1.7087,0.0228,0.2683,-0.4593,-12.7982
3.488,-2.5341,2.6648,7.9772,0.6658,1.3280,1.9333,-2.5504,-15.2710
3.492,-4.8618,4.0349,4.4017,-0.3202,1.0841,7.3696,-1.0097,-13.4470
3.496,-4.5688,2.7716,4.2198,0.1259,4.1985,7.9569,-1.1461,-14.8105
3.500,-2.3946,-0.8243,4.9862,2.2717,-0.5355,8.3629,0.8195,-15.9480
3.504,0.3048,-1.1304,6.7462,7.3316,1.5031,11.5082,1.2905,-12.1481
3.508,1.6804,-3.3250,3.9714,7.3211,-0.9735,11.4674,-0.4968,-11.4678
3.512,-2.0086,-5.6131,2.7831,8.3255,-3.0385,12.4085,3.0974,-9.4049
3.516,-3.4192,-6.6196,2.5610,4.1791,-0.4773,13.6907,3.4816,-9.3531
3.520,-6.1968,-6.8337,2.1989,1.8087,-4.4535,10.5049,3.7339,-4.3196
3.524,-8.0134,-6.9873,0.3156,0.2842,-7.3178,14.7147,5.8104,-2.3517
3.528,-9.2425,-11.0938,-4.5064,2.1251,-7.4844,15.8739,10.4040,-1.3532
3.532,-11.1971,-8.9022,-3.0127,0.8058,-6.3050,13.4271,13.9482,1.6066
3.536,-11.5054,-7.3612,-1.3029,0.4290,-9.1682,14.1748,13.5356,5.0913
3.540,-11.8184,-9.3752,-1.2879,1.9863,-13.5582,12.6850,13.4944,7.8644
3.544,-13.5811,-3.7417,0.3481,2.5780,-10.5445,9.3520,17.1662,3.0265
3.548,-13.9046,-4.6401,1.0836,2.8896,-10.0957,5.5038,17.0573,4.4352
3.552,-14.2317,-1.4425,4.1034,1.7513,-10.2060,2.5500,11.7713,4.4020
3.556,-13.9507,2.2009,3.8573,0.2811,-9.0321,1.4837,9.1102,-0.3540
3.560,-13.3387,6.6517,6.2252,-0.7301,-8.6022,-2.5370,8.3313,0.8202
3.564,-10.6877,6.1941,5.6050,-0.9260,-5.4563,-2.2751,3.7564,-5.5940
3.568,-10.9108,5.5464,6.2180,-1.2807,-4.2669,-3.4405,3.7057,-6.5298
3.572,-6.9143,5.8898,4.6348,-2.0377,-2.4005,-5.7968,2.4230,-9.4252
3.576,-7.1771,7.5617,5.4144,4.0220,-3.9847,-4.8875,1.4971,-11.4947
3.580,-3.2270,2.4298,2.7390,3.0578,-3.6040,-1.2213,0.5571,-10.8874
3.584,-3.3635,6.1593,2.9225,6.2581,-4.5251,-0.6614,-2.5841,-12.6814
3.588,-5.6890,6.0382,2.8983,3.3299,-3.6762,2.5156,-1.3511,-10.4617
3.592,-2.5034,7.4966,1.7833,3.1024,-2.8803,0.6438,-4.0855,-11.1599
3.596,-3.6475,7.3856,2.7201,5.5151,-2.5519,0.8678,-4.9024,-8.2602
3.600,-2.5611,7.0817,5.0506,6.3902,-0.4369,3.5689,-6.2785,-11.0439
3.604,-0.6444,4.5906,5.5166,6.4997,-1.5486,0.7993,-10.2466,-6.7333
3.608,0.3108,0.4359,2.7302,7.2297,0.6904,-1.0323,-8.1160,-3.4043
3.612,0.5793,-2.8825,3.5982,7.7088,2.4264,-3.1357,-3.5356,-2.4929
3.616,3.9936,-6.0839,1.3144,11.4171,2.0659,0.9451,-2.3932,2.3380
3.620,5.0659,-7.1433,-0.9124,12.2094,3.2106,0.4004,-0.2002,6.5679
3.624,7.6454,-10.4224,-1.4393,7.7773,3.4576,4.5436,2.3654,7.0199
3.628,6.5630,-9.6109,0.4618,7.4687,2.4359,5.1626,9.5290,6.4519
3.632,7.9556,-9.9551,-2.2825,4.6295,0.5255,6.4203,12.0111,6.5598
3.636,3.3867,-8.9983,1.0659,2.3128,-0.7185,9.7554,17.1612,8.7832
3.640,1.2928,-6.1546,2.9732,0.6370,-1.1236,3.8643,16.5296,7.7376
3.644,-1.7558,-5.9651,0.8928,0.5500,-1.4694,3.7779,18.9986,7.1931
3.648,-2.1343,-6.5645,1.7458,-2.4345,-1.7797,0.2139,16.0896,6.1759
3.652,-2.6878,-7.6413,-0.1170,-1.9830,-0.8675,-1.0253,13.1839,7.0410
3.656,-3.9618,-6.0849,2.1629,-1.6375,-3.2676,-0.3899,16.3878,2.4493
3.660,-0.6874,-4.1477,1.2923,-3.4528,-2.3473,3.1733,14.0549,-3.7588
3.664,-0.7168,-2.6937,-0.7814,-2.9341,-0.9630,4.3857,13.2603,-6.8440
3.668,0.6525,-2.0262,-3.1856,-3.1782,-0.3375,4.8355,8.7729,-9.1714
3.672,2.3936,-0.0293,-2.2214,-4.2649,-0.0069,4.1322,5.7097,-10.9712
3.676,2.7197,0.0825,-3.9431,-4.6645,0.3584,5.3245,2.5766,-10.3265
3.680,2.2323,1.4636,-2.5942,-4.2751,-2.2444,9.0563,3.3650,-12.3824
3.684,3.0381,2.6865,-5.2710,-3.1264,-0.9214,8.0948,-2.8380,-12.6015
3.688,3.6297,5.6004,-5.3301,-2.4475,-3.2838,5.0506,-4.2165,-12.9186
3.692,5.7229,7.6145,-5.9874,-3.5323,-2.6438,5.1886,-7.6704,-11.9584
3.696,5.8590,6.3268,-4.6582,0.1427,-2.4896,7.5401,-9.5177,-13.7483
3.700,6.4133,4.6602,-4.6046,-0.8203,-4.7457,10.3544,-11.9129,-12.6571
3.704,4.2884,0.1497,-7.6875,2.8495,-2.4357,10.6686,-6.7783,-11.8213
3.708,2.3602,-2.6118,-6.9040,3.6428,-0.8975,11.2730,-3.4316,-9.2437
3.712,5.0361,-2.2659,-11.2641,1.4611,2.1162,10.3979,-3.2079,-10.1363
3.716,5.0738,-0.7021,-13.7101,3.7682,3.9723,12.7580,-1.8292,-5.2304
3.720,4.2936,-4.0055,-11.4761,3.0611,3.3686,15.9389,3.6580,-3.8773
3.724,6.7945,-2.3530,-11.4842,1.4042,-0.4530,12.9871,6.3078,-1.8603
3.728,6.7360,-2.6857,-12.1883,-0.7760,1.1855,11.0894,3.3735,-1.0914
3.732,6.2360,-2.7414,-12.4764,0.1393,2.9673,8.7263,6.5030,0.4525
3.736,5.5714,-2.2549,-12.6794,1.7436,0.5293,8.2868,9.2426,0.1151
3.740,3.6324,-4.8656,-11.4538,-1.6686,-0.6604,9.5733,10.0476,-3.4900
3.744,3.1010,-0.8783,-11.3412,-2.4358,-2.3765,9.0961,10.7550,-5.5350
3.748,-2.4741,-0.9562,-9.7110,-5.3061,-2.5377,7.0631,10.2161,-5.7126
3.752,-4.2947,0.6926,-9.8378,-4.6415,-1.5523,-0.1111,9.7187,-7.0874
3.756,-6.5005,0.0282,-6.5770,-3.1560,-1.6958,1.7884,6.7111,-6.9884
3.760,-8.8060,2.7826,-8.1364,-4.5721,-3.4248,0.6722,8.0559,-8.4803
3.764,-8.1491,-1.8591,-9.8560,-4.9916,-4.6494,-1.4881,6.0438,-7.5884
3.768,-6.2117,-1.2581,-8.5306,-4.2009,0.2461,-1.4521,4.1130,-9.4886
3.772,-4.4951,2.8970,-9.4193,-4.0018,0.4269,-5.9458,-0.6308,-8.9854
3.776,-3.8878,0.4133,-6.8499,-4.6075,3.4124,-5.3310,-3.7416,-10.7718
3.780,0.4246,1.6000,-5.5559,-10.6087,1.1776,-3.6917,-5.7206,-16.5542
3.784,1.7766,2.7330,-4.4745,-11.7426,1.2143,-3.9383,-10.9504,-15.3278
3.788,4.8549,5.3436,-4.1490,-11.3369,3.5142,-7.1628,-12.5196,-11.3367
3.792,5.0031,3.8242,-3.7212,-7.8997,5.4356,-2.3024,-16.7497,-15.1388
3.796,6.8720,3.2185,-4.2287,-7.7861,6.8485,-3.4764,-16.2313,-14.0661
3.800,7.9639,1.0701,-1.9621,-6.7562,5.7630,-0.0334,-16.0583,-11.5116
3.804,8.0675,-1.5809,-1.6962,-5.5193,5.6474,0.5366,-16.1507,-10.4879
3.808,4.8729,-2.3487,-3.5302,-4.5657,7.6428,2.2407,-12.2872,-9.1628
3.812,4.9754,-3.8401,-1.8197,-3.0659,8.7721,3.6263,-10.2439,-8.2351
3.816,5.1498,-5.3108,-2.3657,-2.1449,7.5202,8.5578,-5.4539,-5.1933
3.820,2.8360,-4.7755,-5.1461,-1.9111,12.1032,8.0563,-4.2348,0.1418
3.824,1.0578,-5.9914,-11.4056,-0.4879,8.4461,10.1724,-2.3471,3.0021
3.828,-0.5591,-4.2735,-10.9723,0.1160,7.2501,10.9657,-1.1217,2.6189
3.832,1.1420,-4.7324,-8.7648,-0.0622,6.5473,11.5008,1.9753,1.7386
3.836,0.9217,-3.4219,-7.6694,-2.7937,6.1726,7.1296,1.8494,2.3004
3.840,-0.4838,-3.1427,-9.0617,-3.5628,3.7096,8.1541,6.4330,4.5940
3.844,-2.4289,-3.4091,-8.3970,-2.0917,0.8615,5.5490,9.6584,8.2409
3.848,-2.6490,-1.5439,-7.3201,-2.9124,0.1151,2.9234,12.1319,4.2010
3.852,-2.0163,-0.0952,-4.8442,-2.9881,-1.7173,0.7825,13.3478,1.6606
3.856,-5.3000,-1.0737,-4.4709,-3.5306,-3.2923,0.4759,11.1144,-2.1231
3.860,-8.6359,0.9383,-4.5864,-4.3456,-4.6392,-0.2570,11.2414,-3.8509
3.864,-5.7382,-2.6987,-4.2131,-1.8563,-5.3356,-0.9776,4.3695,-4.3723
3.868,-4.3760,-3.0877,-1.5230,-0.7698,-6.3816,-2.4012,0.9421,-4.5133
3.872,-7.9483,-5.6743,-0.6578,0.0028,-4.7628,-3.9932,-4.5936,-7.0774
3.876,-4.9588,-1.7445,-0.8575,2.0560,-6.2227,-3.7246,-8.3956,-7.5383
3.880,-3.0693,-5.6393,-0.5924,-1.2974,-4.6651,-6.3088,-11.0567,-8.2128
3.884,-3.3432,-1.1805,2.0352,-2.7525,-2.2989,-8.2015,-14.5212,-6.7106
3.888,-1.6410,-4.0783,0.9816,-2.2473,-2.7700,-8.3571,-12.7913,-8.6002
3.892,0.9877,-2.3814,4.9082,-1.0096,-4.3369,-7.4584,-14.7854,-10.3982
3.896,1.0256,-4.6105,0.8606,-1.2419,-3.6798,-4.0489,-14.4365,-12.4053
3.900,2.6898,-5.2641,1.3320,-1.1021,-1.3648,-4.2696,-15.2194,-11.4434
3.904,-0.7803,-5.7454,-0.0716,-2.3301,-1.1424,-5.5795,-16.7972,-7.6897
3.908,-1.2520,-4.2804,-0.1382,-4.4879,-1.4916,-5.1166,-15.8434,-6.7642
3.912,-2.7408,-5.9292,-2.2307,-4.7491,-0.5156,-2.1846,-13.5078,-2.4416
3.916,-5.0418,-10.4165,-0.3468,-3.4777,-0.1187,-0.6972,-14.1258,1.8471
3.920,-2.7828,-11.4530,-0.1874,-3.3191,0.2770,1.7810,-6.6599,6.4598
3.924,0.2116,-9.8664,-2.2769,-3.4052,2.0547,3.7884,-4.4245,5.9297
3.928,1.0916,-9.2676,-2.0078,-3.3296,0.3072,3.6498,0.8470,6.4979
3.932,2.9353,-9.9656,1.4311,-3.4640,2.7174,3.6754,4.5690,7.9440
3.936,1.9650,-8.5567,-0.5183,-4.0273,-0.1156,4.7684,6.5339,12.2052
3.940,2.6896,-7.9458,-3.8307,-6.2670,-1.1761,0.4372,6.3170,11.5118
3.944,4.7475,-6.8327,-3.0847,-8.7152,-3.4517,1.4997,6.0458,10.2178
3.948,5.6736,-7.2279,-7.2774,-7.9451,-3.0042,0.1364,8.2489,7.9338
3.952,5.2784,-4.1909,-3.5622,-7.8551,-3.8477,0.5793,5.1078,4.0624
3.956,5.5859,-4.1851,-1.3782,-9.8386,-3.3315,1.6660,6.0113,2.4671
3.960,4.6626,-6.7820,0.5208,-8.6417,-2.5716,-2.1372,1.6358,-1.9227
3.964,3.7821,-7.5337,1.9538,-11.5335,-1.5575,-4.1530,2.6939,-2.9883
3.968,2.6887,-3.8005,5.4540,-11.7625,-1.8030,-9.1055,-0.1472,-4.0743
3.972,3.4801,-2.2124,7.6272,-8.3274,-1.5526,-10.0885,0.3782,-5.7125
3.976,4.5171,-0.1138,10.3412,-7.4125,-2.8547,-11.4867,0.5271,-10.4383
3.980,6.8996,1.5364,12.3712,-8.2369,-0.8581,-13.1777,-6.4932,-11.8232
3.984,8.5650,1.4438,10.1757,-4.9361,-0.2439,-14.2872,-7.6891,-15.5575
3.988,8.0985,0.6434,8.5136,-4.1667,1.4300,-13.6419,-9.9497,-15.0704
3.992,10.9465,1.2439,4.9245,-5.7619,2.2378,-14.6642,-10.2887,-13.4681
3.996,11.4577,-0.0710,8.0182,-1.6283,3.1439,-10.7890,-13.3558,-11.6484
4.000,8.8732,0.7056,5.2057,-3.5709,-0.4540,-9.2342,-15.0208,-8.3520
4.004,10.5699,-0.8031,4.8426,-1.9055,6.0865,-7.7119,-14.5906,-3.7248
4.008,8.5192,-5.6483,2.9715,-0.8174,5.1029,-6.9892,-14.0209,-4.7155
4.012,4.3383,-4.9967,2.5816,-3.6987,4.0489,-8.8711,-13.0795,0.9172
4.016,2.3061,-6.1184,2.5990,-3.0883,5.7816,-4.2944,-8.2970,5.7131
4.020,-3.1465,-6.9468,4.4598,-1.8955,4.5940,1.5520,0.4210,9.1583
4.024,-4.7833,-2.3635,2.2525,1.5483,6.0238,2.6060,2.0377,11.5483
4.028,-4.8674,-2.2156,1.6260,3.8879,4.5825,2.3466,5.4526,11.5938
4.032,-6.1141,0.9766,0.5097,6.4936,4.7892,2.6488,7.1416,13.2174
4.036,-5.5001,-0.4633,0.0619,6.9809,4.8877,5.4073,9.1939,12.4032
4.040,-5.9087,1.2760,-2.9741,6.4800,2.7507,-1.3120,6.9241,11.0660
4.044,-5.6336,2.2741,-4.5974,7.0596,0.1301,2.8139,6.0920,11.3998
4.048,-4.0639,1.4831,-4.3749,5.3425,-2.7375,2.7079,6.0639,10.8005
4.052,-3.2863,4.9826,-3.6249,5.2770,-2.6818,0.8898,3.4682,8.9869
4.056,-4.1444,3.6058,-3.6762,3.0584,-2.1722,3.6069,2.4799,4.9344
4.060,-5.7623,4.6254,-6.4082,2.1420,-2.0486,0.1387,0.5541,2.6061
4.064,-8.0241,3.2881,-4.9000,0.9714,-3.3080,-6.7433,-0.0471,3.6469
4.068,-5.4642,5.7754,-4.4301,-1.6561,-5.3918,-8.1278,-3.8931,1.9861
4.072,-7.0397,6.0089,-0.5832,-1.8547,-3.8222,-10.6816,-3.2919,0.0225
4.076,-4.3675,7.3116,0.4074,-1.5833,-2.7461,-7.6259,-11.4058,-2.7872
4.080,-1.9066,4.7692,1.3896,-2.1625,-3.6758,-8.5074,-12.4323,-4.1624
4.084,-0.5825,5.4566,1.4683,-4.8473,-1.5623,-11.6150,-15.2259,-3.4600
4.088,-0.4270,3.7455,1.3107,-5.6407,-2.4305,-14.0396,-17.6444,-2.2070
4.092,1.3689,4.5688,-1.9606,-2.0993,-1.7720,-14.0346,-17.7368,-4.7191
4.096,1.7366,2.8910,-0.7336,-1.1896,-1.5503,-9.8673,-21.1288,-2.4525
4.100,2.1065,2.2166,-0.8002,0.6935,-2.5698,-6.8065,-22.0689,-4.0229
4.104,4.6203,1.4036,0.7783,0.9063,0.6489,-6.2505,-22.2312,-0.0528
4.108,5.2475,-3.4497,2.0128,-0.9214,4.2515,-5.5941,-20.4913,2.3019
4.112,5.1744,-1.8516,1.0832,-1.3022,5.6286,-7.8042,-14.8432,5.9958
4.116,4.3912,-3.2601,-2.3223,-2.6382,4.7544,-5.8862,-15.5640,5.4265
4.120,2.3562,-4.6793,0.3589,-1.6553,3.4105,-5.5819,-12.3151,5.2105
4.124,0.9656,-4.4632,-2.6858,-1.0689,4.0373,-3.0025,-8.2529,8.3132
4.128,1.1253,0.6297,-1.9235,-0.5690,5.8336,-3.7337,-7.6103,8.8662
4.132,1.2415,-0.1532,-2.4278,-2.6570,5.5198,1.4243,-6.4570,10.1176
4.136,0.1329,-0.7831,-4.7227,-1.6779,4.6518,1.5021,-4.5377,11.7703
4.140,-2.7964,0.6906,-4.6873,-4.3398,4.3737,1.8700,-4.2634,11.1994
4.144,-2.7577,-3.0863,-5.5820,-1.3824,4.9241,5.7213,-3.3078,8.3394
4.148,0.9613,-5.1349,-5.9070,-0.7593,3.4933,5.6900,-1.9968,7.4131
4.152,-0.8873,-5.5538,-5.5588,-2.5194,3.1181,4.6580,1.8292,5.5656
4.156,2.2052,-5.1152,-4.3115,-1.6674,2.6182,9.8298,-0.9200,1.7077
4.160,0.2998,-4.9038,-5.4295,2.4765,-2.2231,5.8872,0.5111,3.0083
4.164,0.8978,-2.1727,-3.6164,1.9587,-3.1104,7.0118,-2.1150,-0.0234
4.168,1.1285,-0.8821,1.0538,-1.1827,-3.0136,3.9564,-2.6028,-3.1422
4.172,5.4813,2.1832,-1.5870,0.6338,-6.2002,2.3481,-4.6490,-3.3364
4.176,3.8273,0.3456,-2.3095,1.1652,-5.5840,-3.2913,-8.9288,-5.4377
4.180,3.5528,1.8037,-2.8519,0.5468,-5.9786,-5.3402,-8.9198,-4.6420
4.184,3.8859,1.9149,-1.0493,-1.9605,-8.6994,-3.6438,-9.0302,-3.1537
4.188,5.0578,2.2075,-0.5346,-1.8503,-4.8538,-3.9584,-11.8689,-3.9230
4.192,4.0597,1.0493,1.3192,-1.6262,-5.7208,-1.1578,-12.5627,-4.8024
4.196,4.0923,-1.9946,0.2454,0.5964,-3.6032,-1.2175,-13.9137,-5.3498
4.200,4.8303,-3.1033,5.0057,1.3012,-5.6696,-2.2862,-10.2917,-4.3405
4.204,6.4372,-2.0640,6.6588,4.7379,-6.4899,-2.5374,-9.3623,0.5864
4.208,3.9771,-1.4926,5.2232,4.6582,-7.2828,2.3623,-4.9500,2.4452
4.212,5.1021,-0.6167,3.4102,6.2926,-6.9987,3.9718,-5.3727,6.9627
4.216,1.8919,0.4389,1.9237,7.1354,-9.2217,0.3393,-5.8442,9.6692
4.220,0.5994,-0.8527,0.3284,10.7536,-10.2253,4.4466,-3.7299,14.3275
4.224,-1.5990,-2.2229,1.1304,9.6681,-5.3509,4.7972,-2.7599,13.4459
4.228,-2.6697,-5.4254,5.8939,8.7884,-4.4459,6.1027,0.1566,15.4648
4.232,-3.0727,-7.9178,-0.6221,11.8817,-1.2021,7.3154,0.9579,13.2626
4.236,-4.1957,-8.4221,-1.4762,12.2097,1.2250,8.7045,4.6825,13.7593
4.240,-5.4378,-7.2430,-2.8301,10.1913,0.1270,9.4049,8.3783,14.3287
4.244,-5.7464,-5.5378,-4.0608,9.9518,-0.2555,12.5049,11.8499,10.0375
4.248,-7.3741,-1.7866,-5.7311,7.1846,-1.1464,14.9639,11.2594,12.9061
4.252,-7.4958,-4.2985,-5.8198,5.1190,-2.3502,15.6881,14.6571,11.8064
4.256,-7.6778,-0.9113,-4.7006,3.5244,-3.8721,15.9406,12.8512,7.0585
4.260,-3.6293,-1.4411,-4.5112,0.5163,-5.9477,12.3019,10.2476,3.6395
4.264,-1.8189,0.8401,-4.3694,1.2748,-5.6049,10.8556,7.4871,-0.4713
4.268,4.8435,5.4373,-1.5584,0.3933,-6.4292,6.2047,4.2860,-2.2586
4.272,6.4150,5.8912,-1.0041,-1.0552,-5.9810,5.8626,-0.4908,-4.7098
4.276,8.9802,4.1238,-0.8895,-1.9019,-5.2446,4.0138,-3.5997,-6.9905
4.280,6.7091,6.8593,-1.4659,-3.3925,-3.5486,-0.4303,-5.4471,-7.7219
4.284,8.0686,2.0821,-2.7312,-2.8706,-3.7026,-1.2644,-6.5954,-9.9432
4.288,7.2745,4.3361,0.9045,-4.2325,-3.6022,-6.0730,-11.8869,-11.7100
4.292,6.7553,3.3689,-0.2799,-4.8471,-2.1101,-6.0982,-15.6407,-10.4520
4.296,7.3418,3.0947,1.0619,-4.7070,-1.7829,-3.2556,-15.2843,-6.8982
4.300,7.5453,-2.7911,3.3413,-3.8838,-5.3664,-1.2568,-18.2313,-8.3918
4.304,5.0234,-1.2985,4.6456,-4.4655,-3.5370,-0.6097,-16.8853,-3.8444
4.308,1.9177,-1.7634,1.1438,-1.3155,-4.0405,-2.4411,-18.3694,-0.7331
4.312,3.8967,-1.3232,1.9548,-1.7701,-2.9244,-1.7236,-17.9035,2.2564
4.316,0.9944,-0.4547,0.9099,6.4576,-3.3370,-0.4635,-14.5872,5.7525
4.320,1.0390,0.2842,-0.8083,5.7752,-1.1218,-2.0884,-10.8104,3.8798
4.324,0.4017,1.3695,-2.1226,11.2162,1.9981,0.1003,-6.6225,5.9899
4.328,1.3141,1.9209,-3.3289,12.6179,2.3925,-0.4323,-5.6529,6.2341
4.332,0.2715,-1.2767,-7.5949,13.6626,1.0231,0.3368,-3.2033,10.1624
4.336,-1.6095,-1.4619,-6.4086,13.1908,-0.3634,1.7867,1.9395,12.7927
4.340,-0.9669,1.9180,-5.2048,10.8666,0.9890,4.2869,1.7505,11.6623
4.344,0.5012,3.4287,-4.2952,12.0057,0.1046,6.7657,2.7754,10.7436
4.348,1.1186,3.5815,-3.4344,8.5388,-0.1282,11.7289,3.5965,8.2147
4.352,2.0575,7.7488,-4.9689,6.9945,-0.5591,10.5371,4.9631,7.8891
4.356,3.6852,10.4277,-5.2545,7.9280,-5.9578,8.5538,3.9549,3.7067
4.360,6.3308,12.3464,-7.1508,4.1325,-8.6687,8.8747,4.4573,3.5244
4.364,8.2249,13.8167,-7.3414,4.2764,-8.6922,9.7684,3.5895,4.8262
4.368,8.6232,16.5996,-5.3211,4.4869,-9.4550,7.4084,0.1976,2.6175
4.372,10.2003,15.8426,-4.6982,3.8955,-13.0224,6.6552,-1.3954,3.6919
4.376,9.9033,11.4296,-4.8234,2.3093,-14.7044,6.3202,-0.0369,1.1425
4.380,8.7731,11.1207,-6.6860,3.4292,-13.2458,4.3227,-4.7609,2.7184
4.384,8.6208,10.2615,-4.6346,2.9918,-16.4742,2.3378,-2.7569,0.6053
4.388,4.0463,6.0070,-4.8565,2.6558,-16.7415,0.7779,-2.1282,-2.7796
4.392,5.2466,5.8664,-3.3772,4.3630,-16.8416,2.4590,-4.0475,-0.9122
4.396,4.3418,2.7972,0.6659,4.7827,-15.0417,2.2201,-3.6719,0.3289
4.400,7.2431,-2.3288,-0.1822,6.3678,-13.5726,1.9102,-2.7933,0.8069
4.404,3.3041,-0.4073,0.5587,7.0115,-10.9994,-3.9421,-5.2721,2.2846
4.408,0.7101,1.1471,1.3150,3.8974,-9.4156,-2.1980,-3.2187,5.0591
4.412,-0.1904,-5.0241,1.9355,5.0961,-7.4085,1.0951,-1.4159,8.1680
4.416,-0.0648,-8.5846,1.1056,5.5162,-8.2611,0.5291,1.3077,7.8783
4.420,-0.4662,-7.0259,-0.4210,4.7606,-6.1628,1.8032,6.5825,9.5084
4.424,1.1008,-7.2447,-3.8062,6.7164,-4.0709,1.1485,6.6187,9.6092
4.428,-2.1808,-6.2376,-2.9695,5.5792,-1.5031,1.3407,9.4156,11.0254
4.432,1.0402,-4.3416,-0.7417,4.8943,4.2739,1.7587,12.8476,9.8488
4.436,-0.4327,-7.2659,-1.8195,2.6236,5.6620,3.3982,11.0693,9.2558
4.440,0.8589,-6.1564,1.3362,2.7177,6.3052,5.7575,10.7805,8.1791
4.444,1.0099,-8.0637,0.2200,0.1711,8.1741,5.1031,13.9148,5.1347
4.448,-1.0452,-8.5499,-2.8615,1.5387,7.6634,4.2997,13.4652,2.9339
4.452,-0.1080,-9.0609,-0.6046,-3.2678,6.8993,3.5745,11.5366,-1.5536
4.456,-1.0865,-8.4550,-3.7478,-3.7343,9.0173,6.3227,7.9350,-5.1536
4.460,1.2151,-7.8038,-4.2805,-4.5407,10.4613,8.1284,6.2528,-5.5111
4.464,3.8797,-7.6871,-4.4809,-2.2508,6.9270,6.5726,4.3657,-10.7759
4.468,4.7524,-2.6663,-3.8922,-2.8708,6.0455,4.3416,2.8489,-10.8343
4.472,6.7317,-1.2321,-3.5682,-7.1628,3.3881,3.9931,-0.3505,-14.9064
4.476,6.6187,1.1399,-1.6388,-8.6612,0.9220,2.9132,-2.4261,-19.6627
4.480,5.5795,0.5163,-0.2776,-8.2001,-0.9133,3.5807,-9.3905,-21.8541
4.484,6.9089,0.8888,1.0703,-9.2135,2.3287,-0.8272,-10.2251,-20.4821
4.488,4.2554,0.3338,1.1935,-1.1064,2.7774,-4.5665,-15.3064,-20.0064
4.492,6.9445,0.1132,5.6322,0.3166,4.8043,-6.4033,-19.7761,-19.4444
4.496,4.2405,2.8818,5.4534,0.3931,2.4722,-7.5055,-18.5929,-19.8311
4.500,5.1412,-1.9886,2.0569,4.0694,6.6528,-11.4597,-17.0648,-17.2669
4.504,3.5199,-3.6500,1.8975,3.9074,8.4076,-13.0046,-16.5820,-16.0788
4.508,2.2904,-5.1748,0.9150,2.0382,5.4571,-12.8114,-15.6972,-14.8947
4.512,0.4433,-6.1662,1.5030,1.7258,4.2354,-13.9943,-10.1612,-9.8323
4.516,-1.4021,-7.8349,3.5418,4.0043,4.8218,-11.6241,-11.6433,-10.0535
4.520,1.4166,-10.0848,6.1532,3.3626,4.2959,-7.6746,-6.6975,-6.8597
4.524,-1.3534,-13.4453,4.7619,5.4820,8.0580,-7.4824,-6.5652,-8.8736
4.528,-5.8065,-10.5178,4.0508,6.6136,6.7752,-1.2114,-4.8364,-5.3237
4.532,-7.2448,-7.5987,1.0502,8.8616,4.3257,-2.0466,-1.0640,-2.0012
4.536,-5.0419,-4.8880,0.8363,6.6472,4.9835,-0.1914,-0.4735,-0.4987
4.540,-4.5766,-7.5336,-2.0071,2.4565,6.6235,-2.6529,1.1629,1.2812
4.544,-3.7260,-8.0415,-3.0462,0.8192,7.8370,-1.8404,-2.1586,-1.7230
4.548,-3.7088,-8.8357,-3.7399,0.0600,7.7275,-2.9004,-1.0002,-0.7878
4.552,-3.2396,-4.4587,-4.5825,-3.8767,9.3275,0.9579,-0.0694,-5.0256
4.556,-1.8029,-3.2759,-5.4253,-1.3937,7.7390,1.3924,-1.4932,-6.4861
4.560,-1.3767,-0.6267,-6.9688,-3.3704,2.5481,2.3772,-1.5907,-7.5834
4.564,1.3980,-0.8832,-7.6673,-4.5058,3.6834,6.0207,0.5514,-12.8590
4.568,1.0667,-0.0162,-6.8327,-6.3053,1.4666,5.2717,1.2095,-15.4727
4.572,0.0072,-0.0173,-6.5459,-5.4859,3.1013,4.0802,-0.4509,-15.1677
4.576,1.7778,-1.4810,-4.2843,-9.0072,-0.8694,4.4734,-3.0134,-16.4944
4.580,3.7581,-1.9032,-3.2712,-9.9440,1.4177,3.9924,-8.5784,-17.7670
4.584,3.3325,-4.8479,-1.7414,-7.8246,-0.5307,3.5923,-8.5544,-19.2924
4.588,5.1487,-3.9316,-2.5592,-7.0541,-4.5955,4.1148,-9.8832,-15.1184
4.592,3.5067,-4.2549,-4.6340,-7.1084,-4.3863,3.0724,-10.9034,-16.1655
4.596,1.2282,-3.7396,-2.5108,-9.4848,-2.3295,1.7311,-9.8470,-14.1224
4.600,-1.9194,-4.8777,-3.5381,-5.0847,-1.0610,-0.2755,-8.6463,-10.5046
4.604,-2.8215,-4.0687,-4.1442,-5.8630,-3.7571,3.2059,-7.0027,-5.9353
4.608,-4.2724,-5.0794,0.2681,-3.8708,-2.6679,3.2376,-8.6028,-3.3611
4.612,-6.7996,-6.9304,-0.8134,-2.0690,-0.3164,-1.2434,-8.7390,-0.2433
4.616,-8.5869,-7.8705,-1.6825,0.2979,-0.2143,-1.0441,-8.6204,-1.2644
4.620,-12.2912,-6.3139,-0.3776,-0.7023,-4.4005,-0.0752,-11.0393,1.4327
4.624,-6.7240,-6.1687,1.5108,-0.2333,-4.9479,1.9708,-10.2954,0.0501
4.628,-3.0012,-5.6519,0.2996,0.1795,-2.2975,1.1906,-7.2194,-0.2895
4.632,-3.2095,-6.4830,0.2821,0.6528,-2.0118,-0.5808,-2.4467,-0.0802
4.636,-1.9598,-4.6740,-1.4962,2.3411,-1.3220,3.2254,-2.8471,0.7948
4.640,-1.3849,-7.3624,-1.9673,3.6755,-1.9556,-3.3641,-0.0459,1.6755
4.644,-2.8796,-5.1694,-3.9277,4.3267,1.6152,-3.4576,1.4006,1.0515
4.648,-0.4633,-5.9402,-3.8514,6.6904,2.5887,0.1179,4.7688,0.3410
4.652,-0.9125,-1.3012,-2.9865,6.5999,5.6998,0.1573,2.3735,-1.2348
4.656,-1.1139,-0.2057,-1.5585,6.6825,6.7769,1.7296,1.3150,-2.1943
4.660,-2.5901,2.9073,-0.6321,2.3209,6.0556,3.5368,-2.1037,-5.5199
4.664,-5.1109,-0.8352,0.6821,3.2416,6.2840,1.9490,-3.0598,-11.7668
4.668,-2.3607,1.5687,0.5285,2.6485,3.5929,3.4019,-9.9441,-9.7344
4.672,-2.2042,-0.1053,1.4833,1.5533,1.2650,6.3710,-9.9758,-15.4935
4.676,0.0920,5.2598,4.1675,2.9460,-1.8999,7.2500,-11.6796,-17.7016
4.680,-1.1762,2.7126,1.6946,4.5864,-3.4808,7.2713,-16.6171,-18.0672
4.684,0.8936,2.4723,2.0609,2.1455,-5.0759,5.3866,-17.3224,-17.3775
4.688,0.7516,3.7038,1.0722,3.6238,-5.3496,3.5365,-20.2338,-15.7522
4.692,0.5596,1.4161,0.9322,1.7310,-3.8888,-1.6210,-17.2037,-15.6139
4.696,2.1288,-0.7226,-0.4806,1.4716,-5.6482,-4.6735,-14.9962,-13.7624
4.700,-1.9300,-1.0616,0.6769,1.5026,-8.0841,-1.9960,-11.4660,-10.9560
4.704,-4.4929,-1.0301,1.3177,3.5764,-8.8484,-2.5968,-13.0467,-7.1507
4.708,-4.6183,-3.6585,2.9575,2.6812,-10.5965,-4.6599,-10.6229,-5.4651
4.712,-5.0465,-4.0484,4.8484,3.5391,-6.7778,-5.4426,-8.8584,-1.9370
4.716,-5.8213,-5.1735,7.5519,5.9358,-7.4258,-2.4594,-5.4055,1.3255
4.720,-6.1885,-3.9925,5.6046,4.9609,-8.3821,-2.8614,-2.2840,1.5308
4.724,-5.1666,-2.5191,6.2431,2.9536,-6.3235,-0.2758,-2.4790,5.3670
4.728,-5.6976,-2.5904,1.8525,2.5253,-5.3522,-0.5110,0.2781,6.8513
4.732,-4.6507,0.0663,2.3384,3.6252,-6.3241,0.3996,5.0183,7.9595
4.736,-0.3430,-0.8926,-0.0159,2.8435,-5.5692,1.1794,6.8432,8.9287
4.740,3.1527,3.0785,1.8219,1.6634,-3.7014,3.4329,12.1259,10.1099
4.744,3.2422,4.1101,2.2598,0.0695,-0.7025,3.7419,11.3443,8.0285
4.748,2.2891,0.1395,0.2342,-0.7454,-2.1876,4.7830,13.3141,6.7693
4.752,6.8311,4.3713,-1.2211,-3.1980,-0.8643,5.1887,13.5474,5.8728
4.756,4.4713,3.1941,-4.6712,-1.5903,0.8539,8.7192,11.6871,1.1802
4.760,3.5744,3.9253,-1.4725,-1.9812,4.5980,12.2109,9.2331,-1.4000
4.764,3.6882,2.9805,-1.0866,-2.6838,5.2953,14.6817,5.3859,-4.7238
4.768,5.5696,5.1099,-3.1621,-0.4032,5.7716,15.0176,2.9285,-5.6924
4.772,6.5511,5.0365,-3.0430,0.4134,4.0876,16.8805,0.4447,-7.4057
4.776,4.3856,7.7553,-3.2810,0.2110,5.1762,18.0529,-1.2511,-10.1540
4.780,3.8337,4.4104,-6.9656,-0.6075,3.3104,16.0947,-5.1362,-11.1296
4.784,3.5049,2.4384,-8.8755,0.9153,1.8482,15.1378,-4.9496,-9.5902
4.788,3.5608,7.2897,-8.0080,-3.1656,-0.5119,13.6004,-6.3655,-10.4931
4.792,6.3497,7.0115,-6.4537,-1.2952,-0.4163,12.8397,-9.3980,-10.0453
4.796,7.2058,5.8357,-6.8494,-0.7874,-1.2991,4.5564,-11.3849,-5.6007
4.800,8.0977,3.3231,-6.7147,0.0193,2.6473,7.1080,-10.0115,-5.6194
4.804,8.2439,2.3731,-2.9990,0.9936,2.7060,4.8573,-7.9614,-2.7391
4.808,9.3698,2.3344,0.2282,3.0441,0.9042,1.4099,-10.4019,-0.9583
4.812,7.3370,-1.6058,1.6126,2.4560,-1.7534,0.0906,-7.4599,2.2860
4.816,2.9118,-2.1327,2.3395,4.8393,-1.7262,1.9609,-5.7437,3.5851
4.820,2.5218,-4.2185,2.6300,7.4133,-2.6247,2.0797,-3.6406,4.1868
4.824,-1.2664,-3.5550,4.3362,8.5818,-1.0491,4.0571,0.9920,6.5806
4.828,-2.1800,-0.5860,6.5391,10.8091,-0.8731,1.9972,1.4919,8.9171
4.832,-2.8281,-1.0065,5.5213,10.6390,-3.0903,4.2323,6.2117,10.3224
4.836,-0.7976,-0.6436,7.2417,10.6868,-0.5931,2.1764,7.7252,9.6894
4.840,-0.3860,8.0795,8.0437,10.2309,3.2756,4.7441,8.1352,12.4526
4.844,6.3479,6.5557,7.1757,9.2569,4.5841,6.3412,8.1448,10.8089
4.848,7.4825,8.9894,4.2627,7.3332,3.5619,3.9272,6.9692,8.8367
4.852,10.0117,10.1867,6.2904,6.9924,5.3726,4.8788,9.1149,5.8210
4.856,11.7105,10.6571,7.8245,9.6737,3.0064,6.4735,6.9080,5.3408
4.860,13.7090,12.5882,8.4115,7.0867,5.4406,10.1083,5.6454,-0.7487
4.864,16.1273,14.8478,6.2019,7.1890,6.0211,10.6906,8.2316,0.8562
4.868,14.2180,15.3507,5.4758,5.8153,5.0687,13.4700,5.9265,-1.1236
4.872,15.6890,18.9657,5.9702,5.8176,5.0377,12.9117,0.8735,-3.0180
4.876,14.7595,20.4368,2.7756,3.5596,4.7125,11.6166,-2.2316,-5.6187
4.880,14.8219,23.1370,-0.8499,0.5676,1.5609,11.4793,-5.4203,-7.2428
4.884,12.1158,23.1940,1.4866,0.5249,-1.6440,11.4557,-8.1928,-4.5818
4.888,10.3239,24.4625,1.4403,2.4802,-0.9343,7.2128,-12.4772,-6.7605
4.892,9.8886,23.4910,0.5596,0.7073,-2.0996,7.0148,-12.0585,-0.4983
4.896,10.2809,26.4673,2.8811,1.1219,-2.6686,8.7930,-10.3514,3.0503
4.900,9.0610,25.8726,1.5445,0.9673,-3.7753,5.5509,-11.3521,4.5224
4.904,10.9788,24.0018,1.9186,-1.2224,-2.2992,5.9013,-12.9651,7.4234
4.908,12.9410,20.4893,0.8131,0.0050,1.8999,3.6355,-12.7014,6.6224
4.912,12.7552,17.6095,3.2137,1.7032,1.0226,4.5463,-12.0393,9.9777
4.916,16.2214,21.1993,3.9534,1.5727,-1.1751,6.0522,-7.2214,9.1426
4.920,18.1952,22.6563,3.7448,2.0074,-2.0810,4.2805,-3.2468,9.1957
4.924,16.9153,21.0959,4.8852,2.3488,-1.6166,4.9349,-1.2854,8.1839
4.928,18.3728,21.8702,6.0396,6.4270,1.8529,3.1207,0.3593,9.0644
4.932,18.4741,23.8422,5.9105,8.0941,1.7412,2.5898,0.2587,9.5963
4.936,21.2037,25.6667,8.8974,7.2842,2.9006,3.7430,2.9647,8.6492
4.940,21.5027,30.1126,11.7639,9.8984,-0.2904,5.1625,7.0448,7.8348
4.944,25.5430,34.4373,11.3975,10.5190,1.8047,7.4877,7.9943,10.6564
4.948,24.5498,34.7723,12.3679,13.4531,2.4299,5.4215,8.3235,4.6642
4.952,26.5913,35.9601,10.6230,15.1968,6.1794,5.8191,8.5635,5.0461
4.956,25.5568,37.0262,9.6878,15.4985,8.4321,4.0431,9.1356,3.2328
4.960,29.8082,37.6297,9.1689,15.2529,7.1232,5.2913,9.5626,-1.2060
4.964,35.5505,35.9629,10.0080,15.1007,8.1298,6.8143,5.3949,-2.8689
4.968,37.8666,34.8885,6.5846,16.1324,7.8973,7.6082,5.0021,-5.6714
4.972,37.3926,38.0074,5.3704,14.9174,7.6540,7.5389,-0.4616,-4.9515
4.976,38.3953,42.1087,7.1535,14.7662,6.3021,10.2192,-1.2152,-7.3578
4.980,36.7575,41.4297,4.3144,14.8877,2.3655,11.4247,-6.4262,-8.3991
4.984,38.1114,42.6915,5.8965,16.8092,1.9936,9.5368,-10.7803,-10.6207
4.988,38.6787,42.8128,10.4434,18.6097,3.7590,7.9637,-12.5007,-9.5082
4.992,39.3668,41.5767,10.6818,21.0263,2.7592,4.1479,-14.1627,-7.3931
4.996,38.2177,39.3549,12.9225,16.2993,-0.6756,5.0549,-12.9057,-2.2344
5.000,41.2661,42.7518,18.3949,17.9484,-0.1600,2.4163,-15.1820,-2.6937
5.004,40.6333,41.9197,16.1794,15.6403,2.5545,0.2354,-12.9040,0.6863
5.008,43.1415,38.4876,16.8328,18.3647,1.9697,0.0926,-15.1565,1.9834
5.012,41.9712,38.9034,19.4970,19.3927,1.6143,-0.0995,-10.6371,5.8252
5.016,44.5664,40.1082,22.4811,19.3823,5.0119,-2.6574,-6.7872,5.6933
5.020,44.5075,34.1695,26.4394,16.5375,4.5703,-4.5165,-7.0231,6.3106
5.024,44.4827,36.6112,26.4346,16.6537,3.5738,-6.1820,-3.9141,6.1808
5.028,45.9427,38.0750,29.4150,16.1735,3.1386,-6.3235,-1.1408,8.0484
5.032,46.9430,36.5672,31.2714,16.1119,1.0989,-9.6827,1.1250,9.5576
5.036,48.6687,38.9106,30.5756,18.9001,0.0580,-8.8490,2.7333,8.3256
5.040,50.8335,39.8036,32.8925,21.3315,0.4096,-8.0702,4.2797,7.8659
5.044,54.3715,42.6005,32.5637,23.4160,0.1186,-9.9181,5.6529,9.8416
5.048,53.6171,43.6209,32.1873,22.9480,4.4238,-7.4353,9.3074,4.0423
5.052,53.9972,43.5879,30.1797,22.0924,5.0154,-2.9314,12.0418,2.6912
5.056,54.1770,42.5046,29.3930,17.3838,6.7114,-0.8420,10.6818,-4.2666
5.060,55.4763,44.3990,26.8945,18.4414,6.2089,2.5242,12.5121,-6.2215
5.064,57.8816,47.1594,24.6287,17.6718,7.2581,3.1252,9.9560,-11.2279
5.068,59.7289,49.1729,26.5570,21.7848,9.8993,1.2579,5.6858,-11.7619
5.072,62.1031,52.1766,24.8700,18.3476,7.8465,3.0982,8.3233,-14.2022
5.076,61.9995,50.7971,26.2403,18.4233,7.0555,-1.0218,4.1516,-17.0964
5.080,63.2452,52.2741,24.8233,19.4350,5.5559,-1.0185,3.5157,-15.5639
5.084,60.2310,53.9843,27.4401,17.5096,3.7677,0.2075,-0.2039,-16.0847
5.088,56.6653,55.0633,24.9595,20.1931,4.2917,0.5843,-2.7183,-14.4592
5.092,54.6609,53.9494,25.0705,21.3377,2.3072,1.3406,-3.5184,-14.5115
5.096,55.9173,50.5340,24.7099,22.8132,1.6914,2.2289,-2.9240,-10.5634
5.100,56.3673,46.8764,24.2679,21.8707,1.1559,4.3662,-4.8759,-10.2507
5.104,55.5692,48.0840,20.4227,24.0474,0.2543,5.4669,-4.4537,-8.2810
5.108,56.1260,46.3164,17.7758,25.0975,-0.9225,1.6188,-5.1469,-6.5053
5.112,57.3299,45.1622,18.4435,25.0369,-0.2337,1.9911,-5.7869,-6.2416
5.116,60.5690,46.9049,20.7224,24.4358,0.0194,0.6158,-1.4516,-2.3792
5.120,61.4533,46.4922,20.1677,26.3861,0.1601,-0.1421,-0.7167,-0.6103
5.124,65.1558,51.1713,22.6598,26.3927,0.9771,-0.5189,-0.1933,-0.4654
5.128,66.0779,48.4159,24.5699,28.1261,-0.1033,-2.1207,1.8634,1.9057
5.132,64.5393,48.8267,25.4561,28.2365,1.5824,-4.3785,4.4918,0.4284
5.136,66.3786,48.3099,25.1239,28.9211,0.1295,-1.9161,4.7369,0.8111
5.140,69.8002,48.8323,27.3793,30.2697,2.9678,-3.1907,10.9923,0.0641
5.144,68.6991,48.1865,26.2985,30.9146,1.7544,2.4824,10.0927,0.8900
5.148,68.8160,51.6133,27.1642,30.8666,2.5592,0.7686,12.3050,-3.3539
5.152,67.7358,53.8020,28.0271,28.6000,4.4420,0.6701,12.6985,-5.9083
5.156,66.8841,57.6204,25.6906,27.0352,4.6015,6.6554,7.9230,-9.5376
5.160,68.9603,57.1983,26.1279,29.3501,5.7221,9.0615,3.4819,-12.9088
5.164,67.4239,56.2085,27.1863,29.2854,7.3934,9.1589,0.8138,-14.5374
5.168,68.5934,56.4260,28.1692,27.5882,9.0588,11.9709,0.6389,-16.9905
5.172,70.3828,57.5198,27.4752,24.0436,10.2140,13.2616,-3.7051,-19.5971
5.176,71.8338,61.9434,30.5093,24.3853,10.2012,13.3857,-6.1144,-20.2879
5.180,69.2676,63.1002,29.9947,21.5836,11.0069,12.9918,-7.7117,-20.3721
5.184,65.9628,63.0899,29.1560,19.8271,12.1666,8.0959,-8.4087,-18.0103
5.188,67.4206,61.8129,30.3663,17.1853,11.3143,12.3375,-10.7168,-17.7616
5.192,63.3063,60.6645,29.7114,21.7864,11.8990,11.6810,-13.0380,-15.5895
5.196,61.8552,64.7780,27.9518,22.1584,11.8298,11.7518,-15.2931,-11.5152
5.200,58.3315,66.0415,26.4789,22.9651,13.1837,10.5128,-16.6061,-8.0302
5.204,60.2673,63.0326,28.1446,18.2441,10.0422,11.4362,-20.4801,-7.2946
5.208,57.4212,63.0415,26.2160,22.3102,8.4476,11.1723,-17.5066,-1.2752
5.212,57.6875,62.1661,26.5181,21.3485,9.5344,6.8325,-17.0453,-0.5741
5.216,59.5086,63.5518,27.5975,21.3356,8.7906,5.6569,-14.2573,4.3500
5.220,60.6399,62.2081,30.4270,20.9255,5.2443,4.1730,-12.0377,10.8965
5.224,61.4459,63.4872,35.2323,24.4297,4.3735,2.0076,-6.6922,13.5792
5.228,62.0242,62.7774,35.1541,25.2124,1.6942,-2.3086,-5.1173,14.1408
5.232,62.0298,64.7345,33.6655,21.5223,1.3848,-5.9014,-1.7234,13.8595
5.236,63.5378,66.7899,33.7411,23.8157,-0.0668,-7.8653,2.0625,16.9345
5.240,65.0147,68.8475,33.7140,20.9169,2.2807,-5.0178,2.6596,13.9234
5.244,64.4008,69.2710,34.6347,22.5491,-2.6173,-5.7878,3.4299,13.6462
5.248,63.8563,69.7728,35.6014,22.3081,-1.8268,-5.9639,4.0270,9.9048
5.252,61.7155,74.8381,35.4534,22.3103,-1.3438,-6.1275,2.4417,6.0432
5.256,62.3242,75.6900,34.0087,20.9582,-2.0588,-3.8565,3.3805,3.0919
5.260,61.5506,71.9968,31.5395,23.0154,-1.3137,-1.2739,3.1201,2.2220
5.264,62.4334,72.0120,28.9615,19.3238,-2.5372,-1.1945,4.9054,-3.2610
5.268,60.2900,74.4101,29.2380,19.1462,-0.8316,-1.2787,2.1484,-1.3527
5.272,57.8825,70.7598,26.4512,18.8695,0.6491,-0.9083,1.0029,-4.4424
5.276,60.6328,71.0827,24.6128,18.0012,2.7319,4.2697,-1.0003,-2.5437
5.280,56.1055,72.2392,23.9810,16.8102,4.4992,4.5997,-5.2338,-1.0915
5.284,55.7980,69.0087,23.1403,17.5793,4.8880,1.5478,-7.5549,-3.1768
5.288,55.8081,68.2894,23.2392,13.4788,5.6653,10.4811,-9.5324,3.1489
5.292,57.6325,65.7220,20.9436,11.8951,7.4929,12.3916,-9.8224,7.7961
5.296,55.2172,63.2255,18.8011,12.8671,6.0584,11.8343,-10.0841,5.7133
5.300,56.1059,58.0988,17.0231,13.5344,5.8532,15.5177,-14.4273,7.6001
5.304,56.8007,53.6654,16.0545,10.5252,6.5744,14.5842,-11.6755,8.5807
5.308,55.9079,52.7102,13.3140,9.7618,9.0521,14.7597,-12.1555,10.6468
5.312,57.3936,51.3781,16.1247,10.6205,9.7329,16.0561,-9.8338,9.1039
5.316,57.7784,48.6792,18.0395,9.6865,12.1153,13.1891,-5.6960,14.1716
5.320,54.2499,46.0486,18.1233,11.5659,11.4806,9.2657,-4.0180,16.6765
5.324,55.5983,46.1507,18.8057,12.3480,9.4331,9.3773,-1.6928,20.3299
5.328,56.9196,45.9227,16.9701,12.8671,12.4211,8.7179,-2.3859,22.4722
5.332,57.9449,46.1798,16.6363,13.9083,9.6659,7.7479,0.3004,22.2723
5.336,57.7073,42.1921,20.2061,12.9890,11.2645,7.8045,1.8381,23.5710
5.340,61.1316,40.3852,20.6334,15.9016,10.7219,6.3496,3.3994,22.0402
5.344,60.6269,39.6469,19.9834,13.7240,7.1351,6.5091,4.6237,19.7176
5.348,57.4399,39.2515,20.4521,11.9624,6.8120,5.8799,5.8422,19.7463
5.352,59.9508,43.9490,19.2512,9.1390,3.9781,5.0016,8.6222,13.9382
5.356,59.1480,43.4885,19.4639,11.6617,4.9017,5.4330,9.7594,9.3136
5.360,56.6727,42.8053,22.4011,10.0738,10.0435,1.1155,10.1658,3.9145
5.364,54.5342,45.5909,20.9650,8.4843,8.9879,-0.6266,5.0601,1.5876
5.368,49.1289,44.7978,23.1713,8.7184,9.5589,4.2246,3.8752,0.4149
5.372,47.8082,43.9052,21.2214,8.1679,12.1761,4.3193,-0.9106,-5.3593
5.376,50.0328,48.0379,17.7753,7.7968,13.5799,9.0062,-5.2695,-4.2114
5.380,45.8043,46.9710,13.7668,10.0695,16.1375,7.9290,-5.6690,-4.4429
5.384,43.5662,45.3453,12.1116,6.9785,14.8791,7.1023,-8.7570,-3.2030
5.388,42.8136,43.8880,11.8202,7.6945,14.4475,9.8539,-13.2010,0.0840
5.392,39.5416,42.0802,8.3123,6.2780,13.5010,11.1507,-14.4818,3.4853
5.396,37.0065,43.3491,10.1082,4.7347,13.1459,8.9831,-15.1754,3.8144
5.400,37.0482,39.2881,9.4688,4.6152,10.4801,11.1785,-16.3148,5.8976
5.404,35.6936,37.6569,9.1476,5.4241,8.9102,12.6334,-15.8522,9.7877
5.408,31.0202,36.1261,8.9629,7.9511,7.3897,9.1120,-12.1952,7.9351
5.412,29.9432,38.2991,9.8827,7.3192,7.9924,9.9979,-11.3788,6.7225
5.416,30.5533,34.9701,10.7574,5.7668,6.7782,6.4617,-9.2882,7.2166
5.420,28.2649,34.2412,8.6285,7.0053,9.8040,5.6983,-4.2863,7.2610
5.424,27.2252,35.5205,8.3552,8.1126,7.3051,0.2311,-1.9932,7.5894
5.428,28.3501,34.6319,8.4128,10.3150,4.2851,1.0198,1.5690,9.2286
5.432,28.9795,31.3674,6.8850,10.5333,6.3653,1.7282,4.6890,9.9803
5.436,30.6401,32.6074,9.1644,11.5764,4.5569,0.2854,6.6930,11.9461
5.440,30.8184,35.2812,8.6306,10.0151,2.0392,2.1027,11.6891,8.2113
5.444,32.5851,32.0614,7.9019,9.9805,0.9172,0.4015,15.0598,8.8595
5.448,30.8683,31.1339,14.0782,11.7430,3.1880,-0.2701,16.0297,5.5312
5.452,30.7944,32.2169,12.8878,11.8969,1.8092,-1.5860,15.5194,1.2949
5.456,29.9262,32.7403,14.0815,9.3763,2.0000,-3.8368,14.1616,3.1791
5.460,28.8544,30.6880,10.6856,13.1282,1.4833,-5.2460,15.0517,3.2130
5.464,29.3030,29.7417,11.0283,10.1158,1.9971,-6.9896,12.5712,3.8939
5.468,26.5568,31.6424,7.7470,10.2632,4.8129,-4.4881,7.7812,3.3164
5.472,25.7699,27.8630,8.7375,11.0463,6.6767,-1.0612,7.8019,0.9604
5.476,25.5226,27.3653,6.4305,13.7690,5.5294,2.0416,1.9593,-0.4439
5.480,25.5324,26.1764,5.6534,10.6218,6.2482,1.8698,-3.2196,0.8270
5.484,20.6060,24.9452,7.0740,8.6727,7.9547,4.8867,-4.0363,-2.2552
5.488,18.4429,25.0736,3.1615,8.5758,10.6599,5.6852,-6.3171,2.9237
5.492,19.6635,20.9246,4.4287,9.1118,8.9045,8.4742,-8.3365,2.8714
5.496,16.1837,18.9883,4.8365,9.8064,8.2816,9.7385,-8.5589,5.7519
5.500,17.2609,13.1235,4.9135,4.8060,6.0579,7.4755,-9.1514,3.7776
5.504,17.2266,12.7157,4.0259,-0.2349,6.8031,7.3177,-10.3319,7.2313
5.508,15.2705,12.2517,2.3663,1.6410,6.1304,11.0872,-11.7465,9.4646
5.512,17.2505,13.3765,1.1357,2.4863,10.3608,7.5307,-7.5142,13.1934
5.516,13.7433,10.3731,0.7249,2.6581,7.8118,5.1268,-7.2775,14.3768
5.520,12.7207,12.4715,1.8289,0.6847,4.7255,1.7119,-7.0275,13.2292
5.524,14.9008,8.0486,1.2838,0.1345,6.6327,0.6258,-4.3534,14.4490
5.528,12.1764,6.8569,2.0129,1.8735,3.6299,-1.0217,0.2402,15.3582
5.532,14.0844,6.6033,2.4477,0.9858,3.1716,-4.6440,4.9973,11.6035
5.536,11.5120,7.5849,3.4028,-0.3629,0.6931,-6.0565,3.7217,10.1872
5.540,14.7240,9.4837,6.1912,3.2690,2.2294,-6.6612,10.2652,6.7076
5.544,15.4318,9.6170,6.1947,6.3666,-0.5471,-10.3563,10.5898,5.4665
5.548,15.7051,8.5926,7.5806,7.0023,-3.8190,-10.9499,12.7096,4.7625
5.552,15.3445,6.7661,9.9736,8.8596,-3.9976,-14.0614,11.1125,2.7581
5.556,12.5994,6.5636,7.6899,9.4566,-3.1429,-15.3626,10.5132,-2.3255
5.560,15.8395,10.5303,8.3499,5.3587,-4.7535,-12.4155,8.2511,-3.6058
5.564,11.2762,12.0844,5.9085,7.7322,-4.0012,-11.1776,7.2166,-7.4395
5.568,9.4216,16.0300,5.7235,8.3859,-2.5979,-10.0654,4.7518,-10.3997
5.572,8.3704,14.8860,1.5553,7.1224,-2.0029,-6.8271,-1.2030,-11.0129
5.576,6.3098,14.3362,1.9492,6.3087,-3.4685,-4.9601,-3.8249,-11.9053
5.580,3.9524,13.4657,1.8725,6.8555,-3.8155,-6.8458,-6.3397,-12.2387
5.584,2.9998,13.0462,2.3536,6.4729,-0.0377,-2.2332,-7.8954,-8.4826
5.588,-0.1008,9.6488,-0.2210,7.4643,0.8104,-4.0706,-11.5947,-6.5386
5.592,0.0196,6.6986,1.1855,9.3096,-0.9223,-3.6492,-14.7426,-6.2734
5.596,-0.9169,4.9902,2.4671,5.3347,-0.0706,-2.2586,-14.1591,-3.9696
5.600,0.6620,5.9134,1.5285,4.5548,-2.2246,0.8650,-14.3074,0.0692
5.604,2.1113,1.7795,0.7047,4.9928,0.4997,1.3496,-18.4560,3.8835
5.608,0.8637,2.1951,-4.1189,3.7488,0.0263,1.0775,-19.5720,7.2056
5.612,4.7096,5.3346,-3.5389,6.3506,1.4059,0.6723,-20.2024,7.8149
5.616,7.5768,3.2357,-5.7507,1.6220,0.0042,1.2855,-17.4459,7.0897
5.620,5.9619,0.2949,-7.3623,0.0349,-1.5961,3.6934,-16.4190,10.2420
5.624,9.7859,0.0056,-3.4285,2.8151,-0.1453,0.1699,-9.3269,14.1740
5.628,11.1184,-1.4926,-5.9689,0.6059,-1.0417,2.1741,-5.9220,19.2029
5.632,11.7117,-0.0579,-3.6961,-0.3905,-0.3651,2.0847,-1.9556,19.2853
5.636,10.9483,2.3747,-2.4242,0.3851,-2.2385,0.2355,0.7096,15.5182
5.640,12.0037,1.2046,-1.6826,0.6605,-1.8458,-2.9477,6.8878,12.1672
5.644,11.9376,2.7579,-0.7610,1.1297,-3.1103,-1.5937,5.2818,12.9467
5.648,12.9700,3.8418,-2.3868,2.1223,-4.2926,-7.3786,6.6123,10.3671
5.652,14.6366,6.4283,-0.2881,2.8256,-6.9445,-9.8558,6.5870,4.9084
5.656,13.8579,8.4458,-2.5325,3.1819,-8.0902,-8.2136,7.4055,2.6317
5.660,14.1541,9.6774,-4.4300,3.8123,-9.5675,-6.9557,7.9800,0.7794
5.664,14.4020,9.4991,-3.2678,3.0580,-9.7539,-6.5566,7.0719,0.0913
5.668,14.4770,7.5937,-0.2331,2.5264,-6.7769,-5.7870,3.3056,-3.6286
5.672,14.2462,5.5110,1.4485,0.6817,-2.8183,-3.4712,2.6524,-4.6110
5.676,13.2332,5.9853,2.9635,-0.8979,0.0598,1.5494,1.2726,-6.4739
5.680,12.1735,5.4319,6.1654,-1.3892,1.8092,1.1760,-3.7203,-6.7211
5.684,7.0893,4.2036,4.0949,-1.4549,2.8112,3.3025,-8.4138,-3.4137
5.688,4.4434,2.6104,4.7068,-1.2865,5.3467,5.8080,-8.6354,-5.4792
5.692,1.3598,-0.1966,2.3126,-4.4144,4.1625,3.6003,-10.8305,-4.9962
5.696,2.2609,-2.7365,2.3630,-5.7904,6.3446,4.5637,-11.1121,-2.2915
5.700,1.2376,-2.4126,1.3503,-6.9887,6.2268,7.6328,-14.0837,1.3956
5.704,-1.4376,-4.0699,-0.0746,-6.3192,3.7965,10.8125,-14.4572,1.1360
5.708,-2.3307,-3.0295,-1.6474,-3.7243,3.0760,11.0028,-14.4327,3.6709
5.712,-2.9163,-2.0949,-2.9820,-0.7173,-1.6435,11.9982,-13.1319,4.6898
5.716,-2.2933,-2.1533,-2.2941,0.2412,-0.3430,13.0072,-12.3709,8.1972
5.720,-3.2039,-3.4125,-0.4728,2.0370,-1.5022,13.8065,-7.6071,11.5767
5.724,0.0510,-2.8496,-1.4595,3.8999,-2.3461,11.9405,-5.3701,11.4697
5.728,-0.3085,-7.4195,-0.4130,5.0875,-4.5657,8.3022,-6.2760,9.3946
5.732,2.1341,-7.4462,2.7839,7.9238,-4.3331,6.5330,-3.1300,10.8797
5.736,-0.2305,-6.2507,3.6975,7.3698,-6.7100,4.1088,-2.5367,6.1976
5.740,1.8228,-9.2472,3.7578,9.8387,-5.5981,2.1389,0.8080,7.2225
5.744,1.0859,-7.5425,4.7026,9.3514,-9.0583,0.0144,1.4308,4.1031
5.748,3.8215,-5.4697,5.7648,11.6985,-6.6091,-0.4979,2.3760,5.5861
5.752,2.6879,-6.1670,3.8962,10.2569,-6.6429,-0.1403,4.3017,4.2861
5.756,2.6636,-5.9040,4.4267,9.1384,-11.3996,-5.1825,4.5143,3.9895
5.760,2.0286,0.0466,4.2938,8.9479,-10.3409,-7.1999,5.1453,2.1796
5.764,2.1706,-3.2535,4.0002,7.9517,-9.1882,-4.5120,1.5345,-2.1066
5.768,-0.1063,-2.6118,4.1415,8.4706,-10.1053,-3.8061,-1.7848,0.1003
5.772,0.7569,-4.6274,2.3697,9.0312,-6.4135,-6.5437,-2.4104,-1.3580
5.776,1.8135,-5.3844,1.7029,6.6798,-5.8144,-5.2823,-6.5521,-3.5668
5.780,-0.9248,-5.1348,3.6395,2.8296,-4.8815,-8.0134,-8.3006,-1.6219
5.784,0.7353,-7.9176,2.4379,1.2669,-4.9069,-6.6245,-12.3980,-3.2985
5.788,2.1510,-8.4864,3.4250,-1.8145,-2.0707,-5.3294,-10.3784,-3.9467
5.792,2.4019,-4.1849,1.9629,0.1877,-1.7386,-4.3736,-11.2960,-2.2713
5.796,1.0595,-4.1316,-0.1373,-1.6502,-1.1778,-3.4209,-13.2956,0.3343
5.800,2.6516,-1.0608,-2.8191,-3.3775,-1.4587,-3.3424,-13.8728,-0.5769
5.804,2.1345,-4.1058,-3.5691,-6.8750,-0.6991,-0.3711,-14.5059,5.5051
5.808,1.2547,-3.8439,-2.1775,-2.6233,0.1813,2.3266,-11.6475,7.6135
5.812,1.8094,-4.7591,-3.2216,-1.7866,-0.5194,2.7285,-8.6355,12.1948
5.816,7.2947,-3.3089,-0.4701,-4.9712,-1.7533,6.4965,-10.2205,11.0654
5.820,8.2044,-0.6955,-0.3408,-3.2114,-3.3630,5.1620,-4.3811,10.3099
5.824,7.0028,-0.3773,0.8174,-3.7351,-2.1236,3.9118,-3.5955,9.4778
5.828,6.6648,2.7507,-2.1803,-2.7570,-0.4618,4.5782,3.2469,7.2884
5.832,6.4242,4.7186,-2.0377,-3.7705,-0.5837,5.6438,6.5430,4.4879
5.836,3.6287,6.9927,-0.3222,-7.7690,-1.3032,3.3774,8.6577,1.4391
5.840,5.1996,6.2981,-1.2304,-6.8175,-0.1014,3.7475,10.4116,2.1874
5.844,5.1034,6.7496,-3.0194,-3.6037,-0.9151,3.1834,12.1876,-1.7971
5.848,5.4335,6.4708,-1.3916,-3.9072,-3.3248,2.8801,12.1096,-6.4207
5.852,0.7930,7.4244,-1.4646,-0.9910,-2.7146,3.7005,16.5483,-8.9796
5.856,-0.1502,4.6474,-2.8877,0.5572,-6.0973,1.7196,15.1728,-10.8919
5.860,1.1818,4.8052,0.4214,2.5796,-3.6527,3.2126,12.9093,-9.0408
5.864,2.0654,5.0578,4.8318,6.3587,-4.8771,3.6616,11.8202,-10.1418
5.868,-0.2584,4.9670,8.4857,7.1948,-2.9540,-0.5087,9.0251,-10.9582
5.872,-2.9001,7.0714,8.3288,9.6216,-1.7578,-2.3747,5.1850,-11.5810
5.876,0.0984,2.0075,6.9554,8.4301,-0.7976,-1.8638,4.0986,-14.9036
5.880,0.9972,4.9145,6.1116,10.4410,-2.5745,-2.8689,2.8713,-13.4826
5.884,0.8230,5.9023,4.7292,11.8907,0.7795,-2.0435,-2.2384,-14.1328
5.888,-1.7752,4.3607,1.2761,9.2662,0.5693,-1.0668,-5.6273,-10.7375
5.892,-0.4391,0.2959,0.5354,3.5633,3.9465,-0.0816,-6.6117,-10.9051
5.896,-0.3270,-0.8752,-0.8574,-0.0157,3.0805,1.9289,-5.3089,-11.5054
5.900,-1.5909,-0.1178,-1.6486,-2.4266,0.8660,2.8100,-9.6452,-7.9210
5.904,-2.6555,-1.1581,1.4925,-3.3406,2.5672,3.7341,-10.0229,-4.0745
5.908,-6.0258,-2.4293,3.6442,-2.4502,3.8938,4.3761,-8.6295,-3.5731
5.912,-4.3951,-3.3031,3.3565,-3.6781,1.7952,4.7954,-7.1813,0.1140
5.916,-3.6153,-4.4996,4.8626,-4.6160,1.5406,7.6786,-8.0170,1.6465
5.920,-1.9484,-6.2761,2.9514,-3.8858,1.9136,8.7739,-4.3949,4.7370
5.924,-3.4641,-3.2405,2.1691,-1.7968,0.7838,6.9358,-3.1797,4.9960
5.928,-1.1188,-2.7174,-0.2626,-2.1039,-1.3047,7.2195,0.0440,6.1664
5.932,0.2373,-2.0792,1.4519,-0.9029,-3.4252,6.0492,2.1226,5.0944
5.936,-0.3608,0.8217,2.2719,2.6365,-4.8896,1.4424,5.3505,-0.2162
5.940,-0.5015,-0.1787,0.5344,1.9896,-1.4211,2.6934,6.8090,1.7602
5.944,-1.9704,-0.4205,-0.5566,1.8533,-3.3474,1.4279,11.0377,-1.4036
5.948,-3.7667,3.7085,-1.2658,-0.5273,-2.0604,1.1418,10.8331,-6.3487
5.952,-1.0479,5.2038,-0.9514,-5.1000,-4.1513,-1.1733,13.3516,-9.2104
5.956,-4.5211,7.1637,0.7534,-1.1184,-3.9966,-4.0485,11.5574,-10.9730
5.960,-6.0610,8.2469,-0.5896,-0.3519,-4.5110,-4.4474,8.3515,-10.3535
5.964,-8.4617,7.1132,1.0218,-2.0452,-7.5336,-8.9943,8.2399,-14.0167
5.968,-6.0817,5.7064,1.7955,0.3337,-9.7180,-9.6407,10.3901,-13.0472
5.972,-6.7111,5.5438,1.0304,-0.2766,-12.0485,-9.3462,7.1967,-12.6599
5.976,-4.8514,5.2479,1.1798,0.2342,-10.3546,-9.8159,5.8169,-12.2376
5.980,-2.4129,3.1513,2.0701,3.1299,-10.2812,-9.7424,4.9497,-10.9234
5.984,-6.2093,3.3599,0.2568,0.8634,-9.1246,-5.7684,2.4138,-8.5639
5.988,-6.2351,1.4104,1.1296,3.0900,-4.8422,-6.0180,-1.8378,-8.7796
5.992,-4.3185,-0.8796,1.6336,0.4038,-2.6235,-3.8528,-2.1625,-7.8203
5.996,-2.8752,2.1719,0.4332,-1.1043,-0.4677,-2.2583,-3.2246,-2.1441
6.000,0.2588,2.3434,-0.1768,-3.8052,-0.5909,1.8226,-6.7453,-0.4764
6.004,-0.7453,7.3506,-1.9354,-6.6352,-0.0714,3.7973,-10.8547,-0.9022
6.008,1.2344,6.4638,-1.2540,-6.3497,1.9226,7.8983,-11.6260,3.8065
6.012,-0.1941,5.9990,0.1030,-5.8097,1.4205,9.7849,-10.8237,4.3098
6.016,-1.0591,4.7904,-2.8540,-4.5328,1.7897,13.2071,-6.0249,9.0656
6.020,-1.1753,4.3986,-2.6784,-7.0950,-0.1038,11.9054,-2.8096,10.3964
6.024,-1.1394,1.8015,-2.0229,-5.7502,0.0987,9.7578,0.5946,7.4563
6.028,2.1983,3.0602,-2.5432,-3.4025,0.7946,7.8296,5.9272,6.5888
6.032,2.3718,-0.0124,-3.1265,-0.3691,2.7537,8.4808,7.3057,6.7502
6.036,0.9039,1.0088,-3.2175,3.3705,2.3092,9.3729,12.6813,3.8341
6.040,0.8307,1.6901,-4.1740,3.9619,1.2457,8.4237,12.4978,0.0890
6.044,-2.5143,3.6254,-0.3357,6.0208,3.7802,9.8669,10.0430,-0.7092
6.048,-1.2565,2.7328,1.6797,6.7835,0.6934,9.5181,12.7467,-6.1035
6.052,-3.4174,5.0339,1.3759,8.5640,3.0304,9.5615,11.5716,-9.6601
6.056,-4.4399,5.9752,2.9525,5.3786,1.5306,6.9396,10.9279,-11.2033
6.060,-6.1863,4.2843,4.3910,6.3187,-1.4030,7.3769,10.4955,-14.7704
6.064,-4.9428,0.8451,3.4854,5.3737,-2.2454,6.3307,8.1549,-14.5947
6.068,-7.7377,1.1667,6.3541,2.8377,-4.2302,3.7865,8.3166,-13.4117
6.072,-10.8615,-2.7752,7.1902,4.6258,-7.5697,2.5675,6.3740,-15.0035
6.076,-10.5230,-4.9238,5.5158,5.2915,-7.1823,3.2536,2.6343,-17.2143
6.080,-10.5755,-7.0690,7.1291,2.6144,-6.9034,1.1034,0.4101,-19.2232
6.084,-8.1178,-4.7205,5.8084,3.5606,-6.0426,1.5660,-1.1247,-15.6263
6.088,-7.0985,-6.0431,6.0727,1.6585,-2.6839,2.4247,-5.3060,-9.8922
6.092,-8.0627,-6.1067,8.2815,3.4127,-0.9873,2.4939,-7.9973,-7.1730
6.096,-4.8698,-7.9779,6.8365,1.3366,-0.1594,3.1431,-11.4679,-2.7385
6.100,-4.5265,-7.0085,6.1745,1.8557,-2.7299,1.8882,-11.7429,-1.1855
6.104,-5.3714,-4.5926,7.6103,-0.6049,-3.8515,4.8523,-10.8453,1.0968
6.108,-4.7330,-5.1162,3.5686,-3.2195,-3.2440,5.6128,-7.0833,2.4417
6.112,-7.2418,-3.9710,3.0718,-3.5330,-5.6536,5.1527,-7.1903,5.4420
6.116,-4.3657,-6.8798,2.5949,-2.8266,-6.6777,7.0176,-6.2601,8.2438
6.120,-3.3061,-5.9395,-0.9338,-7.5774,-4.6246,6.2610,-3.0538,4.9808
6.124,-1.0668,-5.4062,-3.7991,-8.5883,-5.5571,5.5450,1.9635,6.7604
6.128,-1.9572,-2.8650,-2.8441,-9.0283,-4.9401,5.1395,3.4411,6.8620
6.132,-0.7252,-0.1177,-1.6849,-6.7094,-3.1250,5.6043,3.2871,5.3162
6.136,2.4755,2.4613,1.1869,-6.1120,-4.0042,3.3810,7.6695,5.0068
6.140,2.7935,2.3180,2.4047,-5.1458,-2.5930,1.7489,10.1306,4.2945
6.144,2.0699,3.4116,2.0368,-2.1527,-2.7745,1.6116,11.0310,1.6124
6.148,3.6974,8.6827,4.3684,-3.3712,-3.3153,1.5375,14.6022,-2.3482
6.152,2.2588,6.1136,2.1059,0.2836,-5.4873,0.7641,13.7664,-6.9015
6.156,1.6272,5.8959,4.0535,-0.4193,-3.0149,-0.3490,14.9720,-9.1207
6.160,-1.4942,11.8103,4.9527,0.2467,-3.0058,-2.0151,15.4404,-9.9571
6.164,-2.5028,6.3220,4.2826,2.7557,-1.9670,-2.3454,13.2932,-12.5954
6.168,-4.7081,7.1700,4.4127,3.2853,-3.1177,-3.2433,11.7558,-15.4373
6.172,-4.9515,6.4793,4.3813,2.2855,-3.4016,-4.2162,8.8754,-16.6383
6.176,-7.3925,6.4070,1.1624,4.4276,-4.0060,-8.7602,4.7237,-16.8218
6.180,-9.1214,6.1479,2.2669,1.8939,-2.5147,-6.4258,-0.8932,-17.5628
6.184,-7.7851,7.2491,5.2788,0.3587,-4.8319,-6.3461,-6.0852,-16.3072
6.188,-8.1341,5.8531,2.3783,1.7415,-4.8393,-4.0886,-9.6345,-15.6852
6.192,-5.4262,5.6889,5.6960,4.7411,-1.2077,-3.4002,-10.1873,-12.2490
6.196,-3.6233,3.3817,7.4004,6.1067,-0.3447,-2.6907,-13.0112,-9.1551
6.200,-2.4320,6.2251,5.8529,0.6463,-2.2719,-3.0636,-10.9879,-4.7888
6.204,-0.5086,2.9113,5.2300,-1.4639,1.2018,-1.3373,-10.7353,-5.3505
6.208,-1.0600,2.4389,2.8627,-0.9970,0.4236,-0.6591,-8.3953,-4.0951
6.212,-1.1505,0.8218,1.8073,-2.5345,4.1734,2.7348,-7.5379,-2.4028
6.216,-3.1577,0.7749,0.1909,-3.4261,2.1261,5.2946,-7.7308,-1.5368
6.220,-2.4377,1.4975,0.5866,-3.3732,4.0296,6.0137,-4.6093,0.1672
6.224,-3.9225,1.7749,-1.6999,-2.7035,4.0229,8.8585,-4.4415,1.3040
6.228,-3.3046,1.3219,-1.2732,-1.1644,3.6821,10.3562,0.5665,1.9219
6.232,-5.0757,0.6705,-4.4232,-4.4317,5.1532,12.4405,3.9948,1.8997
6.236,-6.7035,2.7089,-4.4130,-3.4729,4.3644,15.1021,2.7492,-0.6533
6.240,-5.2939,1.1781,-4.5889,-4.1614,4.1386,14.0262,7.0526,-1.6424
6.244,-8.3077,3.6596,-1.2780,-5.5420,6.9511,16.3744,8.9317,-5.0881
6.248,-5.2857,2.2500,-1.1994,-1.6221,6.2557,13.1365,10.5015,-2.9008
6.252,-4.8860,5.4475,-0.1363,2.3346,5.2875,10.7300,9.2005,-4.6865
6.256,-8.2637,4.2230,-0.0417,1.7483,3.1123,6.9064,7.7217,-8.7468
6.260,-10.0872,0.8493,0.7620,0.1600,0.2966,3.3072,6.7706,-10.7315
6.264,-11.0387,-0.2765,4.5384,-0.1657,-1.5436,0.6836,4.3942,-12.0088
6.268,-9.9635,-1.8524,4.0726,1.8826,-4.1920,-0.3045,-0.9986,-10.1638
6.272,-13.6534,0.1191,6.8133,0.2609,-3.8870,1.7676,-3.1917,-9.0732
6.276,-14.0065,0.0731,6.5876,-1.7215,-2.1792,1.5553,-9.4312,-11.1671
6.280,-12.9743,-1.1485,8.3068,-0.7845,-7.0554,-3.7141,-9.9316,-9.9712
6.284,-12.9540,-1.5473,10.7173,0.5822,-6.2805,-4.1027,-11.5543,-8.4534
6.288,-11.8896,-3.6953,10.7368,-0.7026,-4.4359,-3.9818,-10.9844,-7.5256
6.292,-10.1778,-4.8661,9.4562,-2.5402,-4.5493,-0.8328,-11.3310,-8.4807
6.296,-10.6684,-3.6031,6.1960,-1.7834,-2.5679,-1.6602,-7.3883,-5.8435
6.300,-10.2522,-3.4657,4.4041,-3.5651,-1.3406,-2.3795,-10.1145,-4.3314
6.304,-11.7227,-5.3043,1.8200,-2.7378,-0.1727,-3.4290,-13.3843,-3.0460
6.308,-8.0384,-4.2502,1.6743,-1.2334,2.2573,-2.3368,-14.9892,0.0394
6.312,-7.9740,-3.3803,-0.6680,-2.5991,2.2641,-2.0233,-15.0899,5.2698
6.316,-6.5146,-6.3959,-0.3396,-0.8603,3.5173,-0.4592,-15.3550,4.0180
6.320,-6.5039,-3.8788,-2.3841,-0.7002,3.4969,3.2159,-10.1794,4.1766
6.324,-6.1050,-5.9554,-1.0975,2.4107,4.6405,2.6898,-8.0118,5.9216
6.328,-4.8828,-5.3730,0.2719,1.0431,4.9326,3.0788,-5.1369,6.8732
6.332,-7.7417,-3.6848,-2.4417,-0.2288,3.5376,2.7877,-3.0578,7.0528
6.336,-6.0816,-5.5128,-0.9026,0.7242,3.5203,3.2326,2.2558,4.7253
6.340,-6.1006,-2.3128,-0.5967,1.8362,7.3198,4.0866,4.4373,6.5731
6.344,-4.7710,-1.2466,0.1498,3.4558,7.1516,3.1366,9.6575,5.7016
6.348,-3.2960,2.1274,-4.1739,3.1583,9.8996,6.4511,10.8144,6.2237
6.352,-2.3127,4.2499,-2.3264,3.6051,8.6148,2.9705,10.1594,1.2223
6.356,-3.2527,4.6788,-1.2977,6.1015,8.3568,0.4186,7.4406,0.6990
6.360,-1.9414,4.2421,-2.2175,6.5120,4.1433,1.5712,9.8733,-3.1858
6.364,-1.2084,0.9365,-4.0752,8.2722,4.1943,-0.7446,3.6316,-4.4959
6.368,-0.7473,1.5338,-0.3974,9.8704,1.9346,-2.6498,4.2859,-10.1264
6.372,-2.3243,0.5630,0.0648,7.8607,2.5251,-2.2903,6.0782,-10.7608
6.376,-4.0630,-4.0699,-0.9297,7.4438,0.0409,-1.8996,2.8770,-13.2522
6.380,-1.9434,-2.5940,0.9927,9.5702,0.9532,-5.0079,2.2296,-13.8160
6.384,-1.9189,-2.1752,0.4274,8.2953,1.2888,-3.9243,1.9453,-11.8553
6.388,-3.7471,-3.7969,0.0380,5.4873,1.1961,-4.5171,1.5593,-8.3099
6.392,-3.0802,-2.3476,0.0811,2.5978,2.2994,-3.9554,-1.1280,-11.0182
6.396,-3.6899,-2.4586,1.3952,2.4838,2.0699,-8.5464,-1.6158,-7.5521
6.400,-2.2341,-3.8891,-0.2304,-0.3376,3.5238,-9.3244,-4.2369,-2.8362
6.404,-1.4395,-3.2260,0.9297,0.6762,2.6647,-8.3153,-7.4341,-2.6361
6.408,-0.6334,-3.1349,0.8185,0.8553,3.6616,-10.7569,-6.0511,-0.0152
6.412,0.0515,-3.4297,-0.2877,-2.6775,5.5226,-8.4110,-4.8201,0.5283
6.416,1.2400,-2.5833,-2.6732,-3.4794,7.0781,-7.2107,-1.7025,5.1784
6.420,1.2875,-6.8155,-1.3282,-4.1792,8.5285,-5.7740,1.7924,6.6790
6.424,4.9901,-6.5306,0.0084,-2.7090,5.8883,-1.6914,2.1834,6.0724
6.428,0.7953,-6.1631,0.2321,-2.8567,5.1521,0.5950,5.7145,4.8081
6.432,2.9592,-6.7201,-2.2356,-3.0001,2.7703,1.9661,9.0346,6.4107
6.436,0.2188,-7.3940,-2.4820,-2.6920,3.8089,3.0363,10.2621,11.0156
6.440,0.6025,-4.9702,-2.6964,3.1044,3.4392,5.0193,13.2809,12.5126
6.444,-2.6561,-7.7518,-4.5275,0.7504,4.7192,4.3819,12.2291,10.1275
6.448,-1.9073,-7.1194,-3.6635,-1.6430,3.5522,6.0056,13.5127,8.7156
6.452,-0.5679,-9.3359,-3.8515,-3.0477,3.2823,3.5477,13.1980,5.0076
6.456,-2.3022,-7.6804,-5.9455,-1.9537,4.6611,3.4564,11.1454,2.7855
6.460,-0.0990,-9.9601,-1.0178,-0.1624,6.1072,0.2633,14.3712,0.0273
6.464,-4.0222,-7.4840,-1.9906,1.6309,3.4617,-0.2079,14.4144,-3.2443
6.468,-1.2626,-8.3566,-1.3773,-0.7990,3.6230,-0.9722,15.1007,-8.7365
6.472,0.0306,-9.8172,-1.6394,2.5603,3.3491,0.0007,10.7544,-8.0865
6.476,2.0165,-9.8664,1.1964,4.9410,6.1857,-4.1419,4.5368,-9.2129
6.480,-0.0383,-8.5340,0.3786,6.5441,3.7809,-4.8686,2.3355,-6.4318
6.484,-1.5875,-10.0310,0.8869,7.1510,2.9601,-6.6479,1.5335,-2.7098
6.488,-0.8358,-10.8545,2.5773,5.2994,1.2607,-9.8500,-1.9510,-0.4547
6.492,0.3266,-10.5198,2.2485,4.8204,-1.8630,-10.8449,-8.0718,3.4855
6.496,-0.1964,-8.9392,6.1073,0.4031,-0.8318,-12.8285,-8.5247,7.9773
6.500,2.5006,-11.0161,7.5471,-0.1673,2.2271,-15.3503,-5.6941,11.7867
6.504,0.8738,-15.6651,7.0021,-1.3372,0.4366,-15.3147,-4.9510,18.4917
6.508,3.5454,-11.8929,5.3269,-1.4185,0.8606,-15.8981,-5.3908,20.4207
6.512,4.1231,-12.2118,6.2747,-2.5445,2.3072,-18.0263,-5.6891,20.3206
6.516,4.5227,-11.8703,5.4791,-3.9171,-0.7977,-18.2201,-3.8961,22.5801
6.520,5.7569,-11.2666,5.5736,-5.3259,-0.7576,-16.3389,1.9854,21.3606
6.524,7.7881,-7.7580,4.6628,-5.0730,0.7513,-11.1280,1.9570,19.2619
6.528,3.0064,-3.8214,2.3398,-6.4288,-2.7994,-10.7274,6.1829,19.8220
6.532,5.7085,-0.6832,1.0195,-4.0764,-1.2258,-6.6964,8.5750,15.3584
6.536,3.8528,1.1019,2.4810,-4.8474,-0.3199,-6.5362,9.7895,15.9201
6.540,2.5955,0.4722,-3.2552,-3.1303,3.5458,-3.2542,14.5524,16.8843
6.544,0.2820,2.4090,-1.9533,-1.4930,5.8964,-1.6543,18.7189,14.9224
6.548,-0.1993,0.2108,-1.4529,0.7101,8.0512,0.7546,17.3593,15.2200
6.552,-1.2692,2.6128,-0.1597,1.2159,7.2891,0.7667,18.2323,12.6367
6.556,-3.4790,4.1930,0.4397,2.7318,6.8731,0.3046,18.8862,8.6727
6.560,-5.3054,6.7273,0.9991,-0.6287,6.3975,-0.8868,20.5583,7.3801
6.564,-4.4839,4.0468,3.3412,2.5681,5.9854,-2.0924,17.3755,3.2496
6.568,-4.7805,3.0805,3.3017,2.0533,7.9463,0.3918,14.9390,1.4360
6.572,-4.0077,6.6001,2.0888,2.2570,6.7569,-1.5669,10.1679,-2.9193
6.576,-3.9247,7.3908,-3.9166,-0.3403,5.7264,-1.4742,7.1569,-6.5426
6.580,-5.6707,5.8848,-2.1633,0.8465,1.8354,-1.0491,1.6495,-8.1068
6.584,-4.6545,4.4893,-1.2446,-1.4410,1.2898,-1.6564,0.7290,-9.2468
6.588,-5.2117,4.6397,-2.1208,-2.7827,-0.1294,-3.0943,1.8630,-9.0839
6.592,-5.6548,0.5103,0.5398,-0.7916,-0.6713,-5.2667,-4.0614,-5.1575
6.596,-3.7259,-1.3226,2.8504,-4.1875,-0.9688,-6.4289,-3.6295,-4.1565
6.600,-2.1136,-3.7362,3.2377,-1.4646,-0.9571,-8.3446,-3.9168,-0.4446
6.604,-2.0520,-5.4772,4.8982,-1.0915,-2.0663,-8.2861,0.2122,1.9695
6.608,-1.8770,-6.9813,1.6372,-3.8920,-3.1512,-7.9917,-0.2132,2.1357
6.612,-0.3963,-12.2842,-1.0501,-4.9594,-1.4261,-5.5523,-0.0539,4.3621
6.616,3.1407,-12.4399,-0.7066,-3.1033,-0.5427,-4.9782,4.4152,3.4891
6.620,1.7988,-14.1809,-0.4154,-3.0016,-2.2999,-3.3193,0.7745,5.3061
6.624,1.6291,-13.3182,-2.1615,-4.1512,2.4680,0.7611,4.8817,3.2465
6.628,2.5627,-11.3057,-4.1089,-4.0947,4.4381,0.7836,3.5665,3.8813
6.632,4.4472,-8.6964,-6.4499,-1.8773,4.0469,3.3316,3.8659,3.0179
6.636,3.3526,-7.4649,-7.2048,-4.8617,4.5064,3.4562,5.9968,3.1376
6.640,1.2906,-7.2532,-6.6552,-5.1569,5.2738,3.1100,10.0562,3.2255
6.644,-0.7633,-4.7027,-5.0585,-2.9870,6.9248,5.0980,13.0667,3.2731
6.648,-1.2302,-2.3536,-3.8408,-3.4724,6.0513,4.4889,15.0153,0.1073
6.652,-2.3079,-2.7860,-7.2958,-0.4876,9.8449,4.7203,15.8533,-3.3572
6.656,-1.4027,-0.8241,-5.4026,-0.9946,9.5551,3.4176,16.6809,-7.2697
6.660,-6.0310,0.8896,-6.4353,0.4316,7.9883,5.4992,18.8863,-8.4421
6.664,-5.3424,-0.6401,-7.0466,2.1322,7.1525,4.6326,16.5465,-6.1776
6.668,-3.8044,1.4193,-5.3628,1.1681,9.1889,4.0972,12.3206,-8.0848
6.672,-5.4179,5.7500,-4.8927,0.6961,9.7685,6.1719,10.3819,-10.3292
6.676,-3.5876,6.4282,-5.4529,-1.1154,10.1212,0.4985,7.6146,-7.8238
6.680,-6.1950,2.9245,-7.6215,0.9697,8.6045,-1.3492,3.3933,-8.5624
6.684,-4.7944,3.4676,-6.1854,1.6295,6.9319,-4.3203,0.7460,-4.5132
6.688,-2.4835,1.6514,-7.4984,0.5513,4.8652,-8.5708,-2.6356,-1.8072
6.692,1.1488,1.8073,-6.7852,-0.2535,5.6972,-8.0325,-3.4882,2.1162
6.696,-0.3329,-2.4299,-5.3694,0.7641,4.4265,-6.7649,-5.9396,2.8949
6.700,1.2736,-1.2546,-2.7374,3.0399,3.1150,-6.9017,-9.0766,5.5241
6.704,2.1953,-1.5806,-3.5933,2.6090,4.2554,-7.5047,-7.6431,5.0382
6.708,1.7354,-2.1827,-2.9138,2.4924,4.4697,-3.7889,-7.1686,4.6287
6.712,1.7764,-5.8267,-4.4689,2.5912,3.5193,-3.1505,-8.6039,7.1659
6.716,3.6567,-6.8048,-5.0716,0.6704,7.7133,-3.4297,-6.9128,4.8751
6.720,1.5917,-5.4101,-6.0992,1.2807,7.8475,-2.9599,-5.8575,8.9799
6.724,-1.7319,-3.2049,-8.6284,1.4151,11.7500,-0.9631,-2.7916,8.4866
6.728,-2.9950,-3.5721,-11.1952,1.4317,12.7939,-1.1704,-2.7041,8.0218
6.732,-2.5766,-0.2491,-11.3736,0.7466,14.7805,0.7926,2.3206,8.1152
6.736,-5.7098,-1.8283,-10.9064,-3.1148,14.7827,4.4350,7.3351,5.6348
6.740,-4.0827,-1.6689,-8.4033,-5.6992,13.9987,4.7749,7.9165,4.3306
6.744,-6.0344,-0.4340,-7.0078,-3.6759,13.3748,5.4769,7.8036,-0.0039
6.748,-1.3177,0.8562,-7.0550,-4.2718,14.1810,7.8016,11.3357,2.7091
6.752,-4.3479,1.7893,-8.5970,-1.1829,14.1978,8.0903,11.0881,-0.9717
6.756,-7.9168,3.8122,-9.0469,-2.4906,14.1015,8.7479,8.7394,-6.0804
6.760,-9.5993,5.1662,-7.5016,3.3700,12.7107,14.9332,8.4970,-8.8213
6.764,-12.2406,6.9505,-8.8387,1.5934,12.9368,13.2053,6.0486,-9.1496
6.768,-12.1939,6.2287,-6.0419,0.5703,11.7987,10.8733,5.3784,-8.3830
6.772,-13.6737,5.2967,-5.9923,5.3262,11.9665,6.7545,4.9694,-7.0776
6.776,-14.6301,9.1540,-4.0255,4.0425,11.3332,5.1784,6.8361,-9.2239
6.780,-10.9565,4.2928,-3.2252,4.6708,9.2987,1.2758,5.5005,-9.1363
6.784,-10.6585,0.9270,-1.3753,4.7503,5.0173,1.4288,3.4840,-4.4373
6.788,-6.8928,2.6102,-0.0188,3.4908,1.3582,-1.1767,2.3070,-5.6754
6.792,-7.2407,4.0862,2.3633,5.0390,0.1380,-6.0014,-0.6307,-2.8113
6.796,-3.4900,3.1402,-0.2252,2.3142,-1.3430,-4.9895,-5.3888,0.7591
6.800,-2.4540,1.3049,0.9925,3.6200,-3.2546,-8.3203,-8.0952,2.4917
6.804,-4.7345,1.2984,0.3821,4.4063,-5.0793,-9.1161,-7.5301,4.4796
6.808,-1.8115,-0.4255,2.3344,7.2472,-6.4145,-7.5350,-10.0749,3.9914
6.812,-1.2673,-0.9628,1.3728,6.4447,-6.0196,-3.6421,-8.1160,5.3782
6.816,-4.5511,-5.0924,-0.1565,4.1091,-7.1411,-3.4009,-4.6283,8.5622
6.820,-1.5908,-1.9654,2.1764,5.8578,-3.2908,-6.5961,-3.9461,7.9945
6.824,-5.2304,0.4633,2.4713,2.0471,-0.5807,-4.6816,-2.9800,9.4867
6.828,-3.7158,-2.4587,1.8464,4.0689,-1.0090,-3.4594,0.4553,9.1519
6.832,-3.6614,-0.7657,1.3054,3.7604,3.2733,-2.3102,3.0959,9.5491
6.836,-5.6275,2.4907,3.1099,1.9187,1.7119,-1.1503,7.6969,6.1101
6.840,-3.7324,1.6370,1.7163,0.5126,2.7495,-0.8573,10.7014,3.0549
6.844,-4.8202,0.0045,0.0091,0.4867,0.8441,0.7970,13.4531,4.2240
6.848,-5.0416,-3.6098,-2.2828,-0.4091,2.3565,2.2027,13.5259,1.0845
6.852,-3.1546,-0.5695,-0.7664,1.1501,2.1339,4.0115,15.2645,-0.2827
6.856,-1.1970,-0.6502,-0.8967,0.9855,3.1760,5.7605,18.6360,-3.1837
6.860,-1.8188,2.4169,-3.1281,1.8789,2.2730,6.6742,18.8783,-5.5422
6.864,-3.8272,2.9813,-3.9652,1.8584,4.1734,8.8565,16.2792,-6.9178
6.868,-4.5687,5.5683,-7.4519,5.1234,7.1759,10.3467,15.6749,-6.9886
6.872,-4.9554,7.2473,-8.4659,3.9475,6.6403,13.5306,11.9132,-6.5646
6.876,-4.2902,7.0186,-6.8012,6.3741,5.2812,11.4584,11.6105,-6.5132
6.880,-3.3460,10.6234,-6.6315,5.3660,6.2634,11.2145,10.4179,-7.2446
6.884,-2.8664,10.4396,-8.6161,7.8025,7.8612,9.6283,7.4209,-4.6192
6.888,-0.5448,12.6337,-6.0504,4.6572,4.3588,5.1857,1.4552,-1.7185
6.892,-4.3827,8.9332,-6.6686,4.8344,3.3782,6.6873,-0.8963,-1.6433
6.896,-1.3678,6.4086,-8.6603,2.2345,3.5433,5.9966,-1.1790,-0.4879
6.900,0.8695,10.4580,-7.1144,3.9648,0.4868,5.2330,-0.9034,-2.1477
6.904,0.7919,9.8274,-7.7423,3.4092,2.0003,2.9113,-1.1254,1.0494
6.908,1.1315,10.9122,-4.7549,-1.1023,0.1375,2.6623,-1.0858,5.3426
6.912,-0.5106,10.9248,-3.9420,-2.6814,-0.1407,4.2309,6.0917,7.1077
6.916,-0.4791,11.7671,-3.4713,-2.9061,-1.2663,3.3939,7.8770,6.0288
6.920,-2.5824,5.3213,-0.3488,-1.8496,0.3468,0.9359,6.9318,6.7614
6.924,-0.7732,6.1325,-0.6273,-0.4318,1.2682,-0.8422,8.8924,6.1383
6.928,-3.5535,5.8462,-1.4025,-1.9191,0.5905,-2.5334,12.3705,7.7856
6.932,-4.5424,5.0043,1.3406,2.0949,2.4051,1.0865,15.0374,7.4881
6.936,-5.4413,6.9838,3.1694,2.6227,2.6217,1.7051,15.9889,0.5690
6.940,-7.6724,5.3298,0.6061,1.5356,2.8559,1.0210,22.0675,-0.7086
6.944,-8.6666,6.5341,-0.2725,1.3102,0.6924,1.6661,21.6045,-2.4644
6.948,-8.2987,9.3270,-4.2973,1.1902,4.1123,0.3341,21.4947,-7.4727
6.952,-7.6416,15.2884,-2.4549,-0.5398,4.9923,1.0605,20.6535,-10.3380
6.956,-4.6430,15.9816,-7.4259,0.6035,6.0826,2.7884,20.3957,-12.0801
6.960,-6.9696,14.3103,-6.4061,-1.6088,3.6417,-0.1563,20.5015,-12.8397
6.964,-8.8722,11.4388,-3.3650,0.3702,6.5315,1.8914,20.1751,-15.0294
6.968,-8.4324,13.7876,-4.2651,-0.4333,3.7108,0.5065,21.2019,-15.0472
6.972,-8.7593,14.0550,-4.6162,3.1584,4.5737,0.2758,17.5318,-16.2041
6.976,-8.1600,13.0564,-1.1397,1.2829,4.5604,-0.0841,10.5825,-14.9832
6.980,-7.0855,6.9735,0.8428,3.5813,5.9050,0.7793,9.4403,-12.7672
6.984,-3.1947,5.0183,-2.1988,2.2771,5.1078,-0.6634,8.7746,-8.0742
6.988,1.3307,3.9058,-2.9407,3.7191,4.1671,-5.6725,5.6642,-4.2100
6.992,-0.8624,3.0346,-6.4817,6.9890,2.2909,-5.8978,1.2848,0.3431
6.996,1.3559,-0.6351,-3.7000,4.9640,-0.0512,-5.4817,1.7089,-0.4536
7.000,2.4292,-0.4409,-0.6496,3.0460,-1.0381,-3.9811,-1.6357,5.7216
7.004,2.6126,-5.4081,-0.5941,4.4811,-1.3132,-2.1517,-1.7453,6.9480
7.008,4.3425,-3.2272,-0.9627,2.0787,0.9517,-2.9649,0.8514,4.9816
7.012,1.8078,-2.6046,-1.9796,-0.0385,-2.0546,-6.4172,-3.3122,6.7906
7.016,4.1042,-3.3017,-2.4948,-3.7726,-0.4973,-6.3445,-4.4836,8.2997
7.020,0.9376,-1.1596,-1.9123,-3.9754,0.6572,-7.4346,-0.9351,7.8269
7.024,-1.4341,-1.8890,-1.6557,-2.9882,0.6878,-8.4460,2.2518,6.5587
7.028,0.4523,1.5266,0.5433,-3.6645,0.0526,-8.3723,3.3806,7.0929
7.032,-2.7040,-0.1681,1.5121,-5.7509,3.0409,-13.9624,3.9634,7.3708
7.036,0.6553,0.6603,-0.6988,-1.3279,1.9372,-11.4669,6.4357,4.1232
7.040,-1.1788,1.1826,-5.1496,-2.1736,4.7908,-11.2513,9.5665,4.7673
7.044,-2.0926,2.3174,-7.0230,-1.2183,3.4367,-9.9717,11.5911,4.4986
7.048,-4.8138,7.9132,-5.5883,0.4332,7.4025,-5.2860,13.7425,1.2605
7.052,-1.6540,4.9313,-8.1607,-2.2874,5.4399,-1.3308,12.0670,-0.2241
7.056,-0.6680,8.6358,-9.1336,-4.1429,6.1793,3.1519,13.7484,-0.2581
7.060,1.1438,8.8961,-9.7557,-4.0854,5.9404,4.2645,11.9445,-2.8328
7.064,-1.2393,4.3592,-8.7623,-1.9637,5.6315,8.8276,9.8852,-5.8676
7.068,-1.1461,5.6222,-10.4078,-1.4888,5.2430,5.1575,6.3519,-5.0928
7.072,-2.8608,6.5567,-6.4142,-4.3076,9.7799,6.6140,3.6743,-5.7531
7.076,0.4428,3.8335,-4.5363,-6.1298,8.8834,5.0590,2.0297,-4.6593
7.080,0.5353,1.3188,-4.6248,-6.5009,9.6324,5.1014,0.7327,-3.6951
7.084,0.3601,2.1119,-7.6501,-7.4933,12.5321,5.6303,-2.0829,-5.9484
7.088,-1.5139,0.3391,-8.2535,-3.6191,10.3091,5.3252,-7.9480,-3.3391
7.092,-4.5945,-1.9389,-6.1488,-2.9603,12.5165,4.5848,-7.8726,-0.1790
7.096,-0.9123,-3.6248,-5.4131,-2.2888,12.3943,5.5323,-8.3666,2.9684
7.100,0.0033,-3.8136,-3.4610,-1.9083,9.1710,6.5298,-7.9638,3.1373
7.104,1.6699,-3.6910,-3.1813,-1.1658,8.3137,5.2492,-8.4675,5.7519
7.108,-0.7879,-3.4641,-1.1079,-1.0338,5.0666,3.6371,-10.0724,6.4978
7.112,1.4793,-3.3773,1.6296,-3.1918,7.2000,2.5533,-8.8598,10.2295
7.116,2.3824,-4.9065,3.1824,-4.2943,5.4842,-0.0095,-5.5141,10.1260
7.120,-0.4785,-2.4021,4.3024,-2.3612,7.3947,-4.3624,-4.6588,10.8010
7.124,-0.2235,-5.1465,7.1747,-2.5863,3.3374,-1.7980,-0.4293,12.2013
7.128,-2.2171,-3.4752,3.5967,-3.9202,5.1642,-3.6720,3.4464,9.3429
7.132,-3.7479,-2.7768,3.6267,-4.6068,2.4474,-2.6502,7.1622,10.5397
7.136,-7.0530,-4.0718,1.9238,-5.1553,1.9511,0.9712,10.9887,8.0763
7.140,-7.4861,0.3905,-0.6062,-4.3931,3.3691,-0.8227,15.0789,7.8188
7.144,-9.1544,2.6589,1.8914,-2.7769,2.9357,-1.6089,20.9704,3.5411
7.148,-9.0633,4.2520,1.1834,-4.2443,0.0954,-3.1126,18.3083,1.9575
7.152,-11.4031,5.5887,-0.9622,-4.1846,-0.2181,-1.7691,17.9495,1.6574
7.156,-10.2130,5.0493,-1.7993,-3.4330,-1.8931,1.0095,17.0924,2.0115
